Typical Measured Spectrum of Semrock Di01-R532 Optical Filter	
For wavelengths between 320 and 1120 nm, values near or below 1e-6 (Optical Density 6) are measurement noise limited.
For wavelengths < 320 nm and > 1120 nm, values near or below 3e-6 (Optical Density 5.5) are measurement noise limited. 
Data format:  Wavelength (nm) <tab> Transmission (0 to 1)
300.0	0.08323
300.2	0.08454
300.4	0.08586
300.6	0.08717
300.8	0.0899
301.0	0.09555
301.2	0.10107
301.4	0.10513
301.6	0.10914
301.8	0.11129
302.0	0.11348
302.2	0.11829
302.4	0.12337
302.6	0.12705
302.8	0.1306
303.0	0.12949
303.2	0.12682
303.4	0.12675
303.6	0.12822
303.8	0.13075
304.0	0.13437
304.2	0.13446
304.4	0.12908
304.6	0.12377
304.8	0.11832
305.0	0.11122
305.2	0.11201
305.4	0.11835
305.6	0.12447
305.8	0.12623
306.0	0.12422
306.2	0.11846
306.4	0.11369
306.6	0.11367
306.8	0.11663
307.0	0.12074
307.2	0.12253
307.4	0.12239
307.6	0.11731
307.8	0.11067
308.0	0.10557
308.2	0.10478
308.4	0.10661
308.6	0.10938
308.8	0.11019
309.0	0.10915
309.2	0.10483
309.4	0.10002
309.6	0.09563
309.8	0.09316
310.0	0.09304
310.2	0.09456
310.4	0.09519
310.6	0.09466
310.8	0.09178
311.0	0.08888
311.2	0.08466
311.4	0.08106
311.6	0.07936
311.8	0.07864
312.0	0.08024
312.2	0.08248
312.4	0.08514
312.6	0.08669
312.8	0.0874
313.0	0.08592
313.2	0.08439
313.4	0.08132
313.6	0.07833
313.8	0.07692
314.0	0.07636
314.2	0.0758
314.4	0.07428
314.6	0.07333
314.8	0.07091
315.0	0.06889
315.2	0.06743
315.4	0.06648
315.6	0.06711
315.8	0.0678
316.0	0.06865
316.2	0.06885
316.4	0.06828
316.6	0.06635
316.8	0.06549
317.0	0.06491
317.2	0.06596
317.4	0.06788
317.6	0.07016
317.8	0.07153
318.0	0.07215
318.2	0.07134
318.4	0.06982
318.6	0.06847
318.8	0.06827
319.0	0.06864
319.2	0.06888
319.4	0.06907
319.6	0.06685
319.8	0.06292
320.0	0.0579
320.2	0.05376
320.4	0.05176
320.6	0.05221
320.8	0.05373
321.0	0.05447
321.2	0.05297
321.4	0.0492
321.6	0.04402
321.8	0.03876
322.0	0.03581
322.2	0.03633
322.4	0.03935
322.6	0.04059
322.8	0.04059
323.0	0.03869
323.2	0.03495
323.4	0.03008
323.6	0.02695
323.8	0.02608
324.0	0.02608
324.2	0.02562
324.4	0.02427
324.6	0.02218
324.8	0.01911
325.0	0.01621
325.2	0.01454
325.4	0.01392
325.6	0.01377
325.8	0.01384
326.0	0.01379
326.2	0.0135
326.4	0.01318
326.6	0.0133
326.8	0.01315
327.0	0.01315
327.2	0.01353
327.4	0.0135
327.6	0.01355
327.8	0.01343
328.0	0.01339
328.2	0.01337
328.4	0.01339
328.6	0.01345
328.8	0.01328
329.0	0.01328
329.2	0.01344
329.4	0.01357
329.6	0.01359
329.8	0.01355
330.0	0.01366
330.2	0.01369
330.4	0.01378
330.6	0.01397
330.8	0.01401
331.0	0.01403
331.2	0.01406
331.4	0.01409
331.6	0.01425
331.8	0.01425
332.0	0.01432
332.2	0.01434
332.4	0.01442
332.6	0.01443
332.8	0.0144
333.0	0.01454
333.2	0.0148
333.4	0.01493
333.6	0.01507
333.8	0.01526
334.0	0.01538
334.2	0.01551
334.4	0.01563
334.6	0.01573
334.8	0.01598
335.0	0.01581
335.2	0.01581
335.4	0.01587
335.6	0.01582
335.8	0.01591
336.0	0.01605
336.2	0.01684
336.4	0.01856
336.6	0.02248
336.8	0.02965
337.0	0.04128
337.2	0.05573
337.4	0.07132
337.6	0.08595
337.8	0.09907
338.0	0.11037
338.2	0.11965
338.4	0.12712
338.6	0.13289
338.8	0.13761
339.0	0.14091
339.2	0.1442
339.4	0.14697
339.6	0.14832
339.8	0.14888
340.0	0.15051
340.2	0.1554
340.4	0.16566
340.6	0.17758
340.8	0.18827
341.0	0.1959
341.2	0.20046
341.4	0.20058
341.6	0.19797
341.8	0.19484
342.0	0.1939
342.2	0.19702
342.4	0.20669
342.6	0.21881
342.8	0.23147
343.0	0.24122
343.2	0.24768
343.4	0.2488
343.6	0.24824
343.8	0.24674
344.0	0.24799
344.2	0.25186
344.4	0.25934
344.6	0.27033
344.8	0.28271
345.0	0.29551
345.2	0.30566
345.4	0.31368
345.6	0.32146
345.8	0.33019
346.0	0.33989
346.2	0.34981
346.4	0.35997
346.6	0.37091
346.8	0.38184
347.0	0.39241
347.2	0.39942
347.4	0.40502
347.6	0.41092
347.8	0.41806
348.0	0.42525
348.2	0.43279
348.4	0.43827
348.6	0.44155
348.8	0.44499
349.0	0.44908
349.2	0.45191
349.4	0.45533
349.6	0.46197
349.8	0.4721
350.0	0.48472
350.2	0.49673
350.4	0.50537
350.6	0.50929
350.8	0.5079
351.0	0.50337
351.2	0.49662
351.4	0.49025
351.6	0.48591
351.8	0.48703
352.0	0.49427
352.2	0.50821
352.4	0.52752
352.6	0.54412
352.8	0.55481
353.0	0.55813
353.2	0.5542
353.4	0.54297
353.6	0.52965
353.8	0.51321
354.0	0.50009
354.2	0.49223
354.4	0.4934
354.6	0.50131
354.8	0.51711
355.0	0.53497
355.2	0.55129
355.4	0.56296
355.6	0.56615
355.8	0.56536
356.0	0.55689
356.2	0.5458
356.4	0.53388
356.6	0.52634
356.8	0.52356
357.0	0.52862
357.2	0.53951
357.4	0.55349
357.6	0.56575
357.8	0.57206
358.0	0.57241
358.2	0.56537
358.4	0.55037
358.6	0.53358
358.8	0.51501
359.0	0.49844
359.2	0.48728
359.4	0.48603
359.6	0.49206
359.8	0.50289
360.0	0.51543
360.2	0.52904
360.4	0.53651
360.6	0.53903
360.8	0.53501
361.0	0.52561
361.2	0.51183
361.4	0.49541
361.6	0.48173
361.8	0.4726
362.0	0.46928
362.2	0.47253
362.4	0.4812
362.6	0.49213
362.8	0.50353
363.0	0.51077
363.2	0.51389
363.4	0.51163
363.6	0.50447
363.8	0.49328
364.0	0.47987
364.2	0.46811
364.4	0.45803
364.6	0.45308
364.8	0.45334
365.0	0.46202
365.2	0.47458
365.4	0.48491
365.6	0.49234
365.8	0.49777
366.0	0.49932
366.2	0.49588
366.4	0.48994
366.6	0.47982
366.8	0.47035
367.0	0.46266
367.2	0.458
367.4	0.45925
367.6	0.46191
367.8	0.46915
368.0	0.47755
368.2	0.48498
368.4	0.49079
368.6	0.49372
368.8	0.49241
369.0	0.48904
369.2	0.48121
369.4	0.47288
369.6	0.4651
369.8	0.45864
370.0	0.45636
370.2	0.45865
370.4	0.46402
370.6	0.47146
370.8	0.4808
371.0	0.4898
371.2	0.49947
371.4	0.50442
371.6	0.50722
371.8	0.50537
372.0	0.50089
372.2	0.49229
372.4	0.48513
372.6	0.47982
372.8	0.47578
373.0	0.47662
373.2	0.48152
373.4	0.4919
373.6	0.50288
373.8	0.5164
374.0	0.52695
374.2	0.53591
374.4	0.54165
374.6	0.54279
374.8	0.53998
375.0	0.53293
375.2	0.52652
375.4	0.51823
375.6	0.513
375.8	0.51098
376.0	0.51353
376.2	0.52087
376.4	0.53268
376.6	0.54673
376.8	0.55966
377.0	0.5728
377.2	0.58142
377.4	0.58505
377.6	0.58455
377.8	0.57931
378.0	0.5717
378.2	0.5616
378.4	0.55337
378.6	0.54607
378.8	0.54367
379.0	0.54736
379.2	0.55495
379.4	0.56853
379.6	0.58521
379.8	0.60291
380.0	0.61851
380.2	0.63104
380.4	0.63678
380.6	0.63398
380.8	0.62977
381.0	0.61753
381.2	0.60355
381.4	0.58735
381.6	0.57564
381.8	0.56678
382.0	0.564
382.2	0.56751
382.4	0.58167
382.6	0.60007
382.8	0.6236
383.0	0.64777
383.2	0.67205
383.4	0.68745
383.6	0.69561
383.8	0.69546
384.0	0.68588
384.2	0.66995
384.4	0.64879
384.6	0.62562
384.8	0.60274
385.0	0.58407
385.2	0.57459
385.4	0.57434
385.6	0.58095
385.8	0.59986
386.0	0.62407
386.2	0.65567
386.4	0.68655
386.6	0.71286
386.8	0.73089
387.0	0.73775
387.2	0.73667
387.4	0.72396
387.6	0.70195
387.8	0.67255
388.0	0.6412
388.2	0.61129
388.4	0.58638
388.6	0.57081
388.8	0.56574
389.0	0.57106
389.2	0.58621
389.4	0.61294
389.6	0.64699
389.8	0.6806
390.0	0.70908
390.2	0.73267
390.4	0.74591
390.6	0.74408
390.8	0.73276
391.0	0.70936
391.2	0.6769
391.4	0.6384
391.6	0.59885
391.8	0.5639
392.0	0.534
392.2	0.51521
392.4	0.50415
392.6	0.50546
392.8	0.51755
393.0	0.53834
393.2	0.5661
393.4	0.59541
393.6	0.62329
393.8	0.64536
394.0	0.65783
394.2	0.66043
394.4	0.65227
394.6	0.63385
394.8	0.6059
395.0	0.57021
395.2	0.52982
395.4	0.48788
395.6	0.44776
395.8	0.41241
396.0	0.3821
396.2	0.35667
396.4	0.33654
396.6	0.32138
396.8	0.30846
397.0	0.2983
397.2	0.29043
397.4	0.28701
397.6	0.28597
397.8	0.28509
398.0	0.28566
398.2	0.28606
398.4	0.28826
398.6	0.29075
398.8	0.29256
399.0	0.29605
399.2	0.30026
399.4	0.30429
399.6	0.3072
399.8	0.31107
400.0	0.31474
400.2	0.31884
400.4	0.31971
400.6	0.32264
400.8	0.32483
401.0	0.32551
401.2	0.32548
401.4	0.32618
401.6	0.32665
401.8	0.32845
402.0	0.33155
402.2	0.33569
402.4	0.34217
402.6	0.35117
402.8	0.36305
403.0	0.37797
403.2	0.39615
403.4	0.4169
403.6	0.4386
403.8	0.46231
404.0	0.48276
404.2	0.50062
404.4	0.5111
404.6	0.51999
404.8	0.5213
405.0	0.51577
405.2	0.50659
405.4	0.49292
405.6	0.4786
405.8	0.46425
406.0	0.45153
406.2	0.44304
406.4	0.43682
406.6	0.43515
406.8	0.438
407.0	0.44313
407.2	0.45194
407.4	0.46104
407.6	0.47028
407.8	0.47958
408.0	0.4845
408.2	0.48679
408.4	0.48421
408.6	0.47867
408.8	0.46984
409.0	0.45715
409.2	0.44357
409.4	0.43022
409.6	0.4173
409.8	0.40716
410.0	0.39939
410.2	0.39394
410.4	0.39208
410.6	0.39405
410.8	0.39832
411.0	0.40501
411.2	0.41319
411.4	0.42177
411.6	0.42924
411.8	0.43481
412.0	0.43833
412.2	0.43885
412.4	0.43594
412.6	0.43114
412.8	0.42222
413.0	0.41239
413.2	0.40183
413.4	0.3914
413.6	0.38245
413.8	0.37498
414.0	0.37114
414.2	0.3696
414.4	0.37016
414.6	0.37407
414.8	0.37947
415.0	0.38582
415.2	0.39344
415.4	0.40159
415.6	0.40822
415.8	0.41155
416.0	0.41498
416.2	0.41498
416.4	0.40988
416.6	0.40373
416.8	0.39627
417.0	0.38691
417.2	0.37704
417.4	0.36856
417.6	0.36099
417.8	0.35441
418.0	0.35125
418.2	0.34983
418.4	0.35157
418.6	0.35557
418.8	0.36186
419.0	0.36907
419.2	0.37719
419.4	0.38452
419.6	0.39114
419.8	0.3959
420.0	0.39834
420.2	0.39791
420.4	0.39472
420.6	0.38864
420.8	0.38119
421.0	0.37257
421.2	0.36232
421.4	0.35291
421.6	0.34454
421.8	0.33781
422.0	0.33198
422.2	0.32951
422.4	0.32965
422.6	0.3319
422.8	0.33635
423.0	0.34315
423.2	0.35123
423.4	0.35904
423.6	0.36876
423.8	0.37619
424.0	0.38249
424.2	0.38673
424.4	0.38779
424.6	0.3874
424.8	0.38403
425.0	0.37917
425.2	0.37156
425.4	0.36459
425.6	0.3558
425.8	0.34946
426.0	0.34438
426.2	0.34001
426.4	0.33787
426.6	0.33841
426.8	0.34097
427.0	0.34571
427.2	0.35206
427.4	0.36024
427.6	0.36827
427.8	0.37685
428.0	0.38459
428.2	0.38958
428.4	0.39385
428.6	0.39572
428.8	0.39401
429.0	0.39147
429.2	0.38623
429.4	0.3798
429.6	0.37121
429.8	0.36347
430.0	0.35703
430.2	0.35171
430.4	0.3467
430.6	0.34409
430.8	0.34348
431.0	0.34588
431.2	0.35014
431.4	0.35681
431.6	0.36419
431.8	0.37363
432.0	0.38328
432.2	0.39241
432.4	0.39989
432.6	0.40654
432.8	0.41016
433.0	0.41091
433.2	0.40997
433.4	0.40729
433.6	0.40209
433.8	0.39505
434.0	0.38728
434.2	0.37937
434.4	0.37259
434.6	0.36688
434.8	0.36131
435.0	0.35972
435.2	0.36098
435.4	0.3631
435.6	0.3688
435.8	0.37509
436.0	0.38413
436.2	0.39312
436.4	0.40315
436.6	0.41155
436.8	0.41981
437.0	0.42542
437.2	0.42974
437.4	0.43169
437.6	0.42944
437.8	0.42743
438.0	0.42336
438.2	0.41759
438.4	0.41137
438.6	0.40482
438.8	0.39992
439.0	0.3946
439.2	0.39045
439.4	0.39008
439.6	0.3913
439.8	0.39307
440.0	0.39867
440.2	0.40497
440.4	0.41345
440.6	0.42351
440.8	0.43223
441.0	0.44067
441.2	0.44902
441.4	0.45407
441.6	0.45815
441.8	0.45913
442.0	0.45774
442.2	0.4553
442.4	0.4492
442.6	0.44342
442.8	0.43633
443.0	0.43002
443.2	0.42272
443.4	0.4163
443.6	0.41238
443.8	0.4094
444.0	0.40931
444.2	0.41087
444.4	0.41475
444.6	0.42179
444.8	0.43108
445.0	0.44049
445.2	0.45167
445.4	0.46183
445.6	0.47068
445.8	0.47917
446.0	0.48502
446.2	0.48857
446.4	0.48944
446.6	0.48831
446.8	0.48462
447.0	0.47821
447.2	0.47049
447.4	0.46262
447.6	0.4545
447.8	0.4474
448.0	0.43888
448.2	0.43298
448.4	0.42962
448.6	0.42946
448.8	0.43066
449.0	0.43563
449.2	0.44383
449.4	0.45243
449.6	0.46385
449.8	0.47523
450.0	0.48607
450.2	0.49605
450.4	0.50469
450.6	0.5139
450.8	0.51751
451.0	0.52019
451.2	0.51897
451.4	0.51602
451.6	0.51064
451.8	0.50271
452.0	0.49549
452.2	0.48454
452.4	0.47665
452.6	0.468
452.8	0.46147
453.0	0.45704
453.2	0.45474
453.4	0.45464
453.6	0.45759
453.8	0.4639
454.0	0.47331
454.2	0.48466
454.4	0.49774
454.6	0.51284
454.8	0.5264
455.0	0.53819
455.2	0.5486
455.4	0.55691
455.6	0.56284
455.8	0.5639
456.0	0.56146
456.2	0.55542
456.4	0.54862
456.6	0.53703
456.8	0.52543
457.0	0.51499
457.2	0.50367
457.4	0.493
457.6	0.48471
457.8	0.47641
458.0	0.47209
458.2	0.47024
458.4	0.47252
458.6	0.47852
458.8	0.49012
459.0	0.50296
459.2	0.51895
459.4	0.53398
459.6	0.54973
459.8	0.56519
460.0	0.57935
460.2	0.59098
460.4	0.59927
460.6	0.60471
460.8	0.60506
461.0	0.60222
461.2	0.59644
461.4	0.58671
461.6	0.57563
461.8	0.56391
462.0	0.55155
462.2	0.53872
462.4	0.5253
462.6	0.51342
462.8	0.50485
463.0	0.49848
463.2	0.49523
463.4	0.49578
463.6	0.49983
463.8	0.51002
464.0	0.52217
464.2	0.53491
464.4	0.55082
464.6	0.5652
464.8	0.57909
465.0	0.59072
465.2	0.6006
465.4	0.6075
465.6	0.61266
465.8	0.61136
466.0	0.60769
466.2	0.60063
466.4	0.59279
466.6	0.58197
466.8	0.57161
467.0	0.55959
467.2	0.54843
467.4	0.53781
467.6	0.52836
467.8	0.51949
468.0	0.51503
468.2	0.51183
468.4	0.51371
468.6	0.51872
468.8	0.52715
469.0	0.54004
469.2	0.55325
469.4	0.56736
469.6	0.58009
469.8	0.59346
470.0	0.6026
470.2	0.60902
470.4	0.61324
470.6	0.61311
470.8	0.61002
471.0	0.60559
471.2	0.59887
471.4	0.59176
471.6	0.58365
471.8	0.57498
472.0	0.56931
472.2	0.56377
472.4	0.55866
472.6	0.55541
472.8	0.55295
473.0	0.55468
473.2	0.55657
473.4	0.56379
473.6	0.57211
473.8	0.58228
474.0	0.59107
474.2	0.59955
474.4	0.60658
474.6	0.61123
474.8	0.61345
475.0	0.61494
475.2	0.61239
475.4	0.60789
475.6	0.60195
475.8	0.59616
476.0	0.5878
476.2	0.58118
476.4	0.57398
476.6	0.57002
476.8	0.56864
477.0	0.56899
477.2	0.57229
477.4	0.57889
477.6	0.587
477.8	0.59786
478.0	0.60816
478.2	0.6195
478.4	0.62665
478.6	0.63031
478.8	0.62913
479.0	0.62572
479.2	0.61936
479.4	0.60864
479.6	0.59464
479.8	0.57859
480.0	0.56096
480.2	0.54268
480.4	0.52366
480.6	0.50583
480.8	0.49183
481.0	0.48188
481.2	0.47478
481.4	0.4716
481.6	0.47424
481.8	0.48108
482.0	0.49123
482.2	0.50169
482.4	0.51618
482.6	0.52918
482.8	0.54259
483.0	0.55472
483.2	0.55839
483.4	0.55957
483.6	0.55197
483.8	0.54223
484.0	0.52709
484.2	0.50678
484.4	0.48477
484.6	0.4634
484.8	0.43713
485.0	0.41228
485.2	0.3868
485.4	0.36273
485.6	0.34279
485.8	0.32862
486.0	0.32189
486.2	0.32254
486.4	0.33066
486.6	0.34659
486.8	0.36897
487.0	0.39426
487.2	0.42311
487.4	0.4507
487.6	0.47332
487.8	0.49001
488.0	0.49795
488.2	0.49774
488.4	0.49082
488.6	0.47549
488.8	0.45621
489.0	0.4292
489.2	0.40028
489.4	0.36672
489.6	0.33156
489.8	0.2971
490.0	0.26427
490.2	0.23535
490.4	0.21258
490.6	0.19772
490.8	0.19187
491.0	0.19604
491.2	0.20944
491.4	0.22933
491.6	0.25271
491.8	0.2784
492.0	0.30433
492.2	0.32887
492.4	0.35037
492.6	0.36724
492.8	0.37832
493.0	0.38202
493.2	0.37894
493.4	0.36863
493.6	0.35142
493.8	0.3258
494.0	0.29626
494.2	0.26375
494.4	0.23039
494.6	0.1996
494.8	0.17338
495.0	0.15138
495.2	0.13412
495.4	0.12203
495.6	0.11428
495.8	0.11035
496.0	0.11053
496.2	0.11525
496.4	0.12478
496.6	0.13924
496.8	0.15703
497.0	0.17632
497.2	0.19376
497.4	0.20697
497.6	0.216
497.8	0.22047
498.0	0.21912
498.2	0.21579
498.4	0.20679
498.6	0.19356
498.8	0.17611
499.0	0.15511
499.2	0.13184
499.4	0.10733
499.6	0.08421
499.8	0.06518
500.0	0.04925
500.2	0.03916
500.4	0.03464
500.6	0.03501
500.8	0.04078
501.0	0.05069
501.2	0.06225
501.4	0.07186
501.6	0.07784
501.8	0.08213
502.0	0.08424
502.2	0.08441
502.4	0.08246
502.6	0.07884
502.8	0.07336
503.0	0.06475
503.2	0.05408
503.4	0.04199
503.6	0.02978
503.8	0.01849
504.0	0.01008
504.2	0.00488
504.4	0.00224
504.6	0.00114
504.8	6.855e-04
505.0	4.4918e-04
505.2	3.1378e-04
505.4	2.3028e-04
505.6	1.6974e-04
505.8	1.3576e-04
506.0	1.0586e-04
506.2	8.2551e-05
506.4	6.6243e-05
506.6	5.3813e-05
506.8	4.3864e-05
507.0	3.6315e-05
507.2	3.0201e-05
507.4	2.5768e-05
507.6	2.1986e-05
507.8	1.8986e-05
508.0	1.6512e-05
508.2	1.4332e-05
508.4	1.2241e-05
508.6	1.0471e-05
508.8	9.3279e-06
509.0	8.3095e-06
509.2	7.5009e-06
509.4	6.8558e-06
509.6	6.2662e-06
509.8	5.5467e-06
510.0	4.9108e-06
510.2	4.3897e-06
510.4	4.0154e-06
510.6	3.937e-06
510.8	3.5166e-06
511.0	3.2464e-06
511.2	3.1456e-06
511.4	2.991e-06
511.6	2.5398e-06
511.8	2.108e-06
512.0	2.4467e-06
512.2	2.4178e-06
512.4	2.2047e-06
512.6	1.9825e-06
512.8	1.8836e-06
513.0	1.8527e-06
513.2	1.9106e-06
513.4	1.6432e-06
513.6	1.4653e-06
513.8	1.4372e-06
514.0	1.4874e-06
514.2	1.2821e-06
514.4	1.2262e-06
514.6	1.4975e-06
514.8	1.3637e-06
515.0	1.2741e-06
515.2	1.1839e-06
515.4	1.0714e-06
515.6	1.2071e-06
515.8	1.0525e-06
516.0	1.2267e-06
516.2	1.287e-06
516.4	1.2837e-06
516.6	1.2923e-06
516.8	1.2951e-06
517.0	1.2892e-06
517.2	1.3427e-06
517.4	1.2027e-06
517.6	1.155e-06
517.8	1.3378e-06
518.0	1.5463e-06
518.2	1.3377e-06
518.4	1.2572e-06
518.6	1.3442e-06
518.8	1.2293e-06
519.0	1.236e-06
519.2	1.3409e-06
519.4	1.3729e-06
519.6	1.3941e-06
519.8	1.4157e-06
520.0	1.4034e-06
520.2	1.4819e-06
520.4	1.4781e-06
520.6	1.5837e-06
520.8	1.8648e-06
521.0	1.9671e-06
521.2	1.8643e-06
521.4	1.8868e-06
521.6	1.9395e-06
521.8	2.0601e-06
522.0	2.3131e-06
522.2	2.6795e-06
522.4	2.6302e-06
522.6	2.6804e-06
522.8	2.7389e-06
523.0	3.0206e-06
523.2	3.4189e-06
523.4	3.6622e-06
523.6	3.5164e-06
523.8	3.8406e-06
524.0	4.2505e-06
524.2	4.613e-06
524.4	5.0721e-06
524.6	5.3423e-06
524.8	5.6151e-06
525.0	6.4184e-06
525.2	6.9902e-06
525.4	7.7992e-06
525.6	8.7818e-06
525.8	9.636e-06
526.0	1.0444e-05
526.2	1.1708e-05
526.4	1.2465e-05
526.6	1.4351e-05
526.8	1.6171e-05
527.0	1.7919e-05
527.2	2.0258e-05
527.4	2.3091e-05
527.6	2.6311e-05
527.8	2.9575e-05
528.0	3.3661e-05
528.2	3.8604e-05
528.4	4.4636e-05
528.6	5.1418e-05
528.8	5.9487e-05
529.0	6.967e-05
529.2	8.1821e-05
529.4	9.6067e-05
529.6	1.1393e-04
529.8	1.351e-04
530.0	1.608e-04
530.2	1.9249e-04
530.4	2.3114e-04
530.6	2.813e-04
530.8	3.4292e-04
531.0	4.2354e-04
531.2	5.1488e-04
531.4	6.4337e-04
531.6	8.051e-04
531.8	0.00101
532.0	0.00131
532.2	0.00169
532.4	0.00222
532.6	0.00329
532.8	0.0044
533.0	0.00596
533.2	0.00817
533.4	0.0113
533.6	0.01564
533.8	0.02191
534.0	0.02643
534.2	0.03631
534.4	0.04879
534.6	0.06449
534.8	0.08312
535.0	0.10387
535.2	0.12631
535.4	0.15121
535.6	0.17675
535.8	0.20344
536.0	0.22873
536.2	0.25511
536.4	0.28059
536.6	0.30544
536.8	0.3242
537.0	0.34534
537.2	0.36425
537.4	0.38177
537.6	0.3971
537.8	0.40804
538.0	0.41774
538.2	0.42978
538.4	0.43562
538.6	0.43934
538.8	0.44382
539.0	0.44689
539.2	0.44998
539.4	0.45344
539.6	0.45576
539.8	0.45695
540.0	0.45787
540.2	0.45769
540.4	0.45934
540.6	0.46026
540.8	0.46248
541.0	0.45849
541.2	0.46142
541.4	0.46326
541.6	0.46869
541.8	0.47831
542.0	0.48924
542.2	0.50438
542.4	0.52288
542.6	0.54515
542.8	0.57203
543.0	0.60162
543.2	0.63395
543.4	0.66741
543.6	0.70185
543.8	0.73734
544.0	0.76295
544.2	0.78945
544.4	0.81686
544.6	0.84524
544.8	0.87459
545.0	0.90497
545.2	0.91857
545.4	0.92873
545.6	0.93531
545.8	0.93989
546.0	0.94186
546.2	0.94247
546.4	0.94145
546.6	0.94053
546.8	0.9416
547.0	0.94074
547.2	0.93992
547.4	0.94169
547.6	0.94211
547.8	0.94354
548.0	0.94474
548.2	0.94407
548.4	0.94322
548.6	0.94301
548.8	0.94452
549.0	0.94246
549.2	0.94259
549.4	0.94389
549.6	0.94371
549.8	0.94226
550.0	0.94259
550.2	0.94381
550.4	0.94348
550.6	0.94335
550.8	0.94234
551.0	0.94348
551.2	0.94194
551.4	0.94078
551.6	0.9415
551.8	0.94336
552.0	0.94467
552.2	0.94591
552.4	0.94627
552.6	0.94597
552.8	0.9468
553.0	0.9478
553.2	0.94821
553.4	0.94831
553.6	0.94913
553.8	0.94894
554.0	0.95233
554.2	0.95438
554.4	0.95451
554.6	0.95385
554.8	0.95304
555.0	0.95351
555.2	0.95453
555.4	0.95452
555.6	0.95671
555.8	0.95689
556.0	0.95578
556.2	0.95658
556.4	0.9554
556.6	0.95637
556.8	0.95854
557.0	0.96009
557.2	0.95994
557.4	0.95662
557.6	0.95699
557.8	0.95807
558.0	0.9581
558.2	0.95732
558.4	0.9557
558.6	0.95566
558.8	0.9547
559.0	0.95417
559.2	0.95456
559.4	0.95415
559.6	0.95187
559.8	0.95012
560.0	0.95088
560.2	0.95072
560.4	0.94974
560.6	0.94793
560.8	0.9463
561.0	0.94658
561.2	0.94621
561.4	0.94597
561.6	0.94687
561.8	0.94561
562.0	0.94368
562.2	0.94301
562.4	0.94666
562.6	0.94805
562.8	0.94785
563.0	0.94838
563.2	0.95087
563.4	0.95268
563.6	0.95359
563.8	0.95511
564.0	0.95732
564.2	0.95875
564.4	0.96282
564.6	0.96373
564.8	0.96402
565.0	0.96286
565.2	0.96325
565.4	0.96398
565.6	0.96531
565.8	0.96306
566.0	0.96241
566.2	0.96214
566.4	0.96133
566.6	0.96141
566.8	0.95997
567.0	0.95701
567.2	0.95793
567.4	0.95607
567.6	0.9554
567.8	0.95403
568.0	0.952
568.2	0.95165
568.4	0.95055
568.6	0.95063
568.8	0.95123
569.0	0.94999
569.2	0.94631
569.4	0.94639
569.6	0.94508
569.8	0.94179
570.0	0.93911
570.2	0.94017
570.4	0.94137
570.6	0.9421
570.8	0.94285
571.0	0.94311
571.2	0.94251
571.4	0.94326
571.6	0.94461
571.8	0.9488
572.0	0.95175
572.2	0.95187
572.4	0.95369
572.6	0.95496
572.8	0.95694
573.0	0.95797
573.2	0.95791
573.4	0.95853
573.6	0.96081
573.8	0.96238
574.0	0.96327
574.2	0.96428
574.4	0.96628
574.6	0.96265
574.8	0.9624
575.0	0.96397
575.2	0.96638
575.4	0.96825
575.6	0.96701
575.8	0.9651
576.0	0.96748
576.2	0.96835
576.4	0.9671
576.6	0.96583
576.8	0.96395
577.0	0.96333
577.2	0.96028
577.4	0.95903
577.6	0.96068
577.8	0.95974
578.0	0.9567
578.2	0.95641
578.4	0.95576
578.6	0.95517
578.8	0.9531
579.0	0.95093
579.2	0.95122
579.4	0.95165
579.6	0.94926
579.8	0.94818
580.0	0.94819
580.2	0.94827
580.4	0.94852
580.6	0.94896
580.8	0.95024
581.0	0.94959
581.2	0.95025
581.4	0.95153
581.6	0.95244
581.8	0.9547
582.0	0.95522
582.2	0.95471
582.4	0.95704
582.6	0.95872
582.8	0.95654
583.0	0.95927
583.2	0.96184
583.4	0.96334
583.6	0.96397
583.8	0.96486
584.0	0.96534
584.2	0.9664
584.4	0.96668
584.6	0.96656
584.8	0.96528
585.0	0.96634
585.2	0.96871
585.4	0.96798
585.6	0.96563
585.8	0.96508
586.0	0.96453
586.2	0.96506
586.4	0.96426
586.6	0.9613
586.8	0.96178
587.0	0.96107
587.2	0.95812
587.4	0.95517
587.6	0.954
587.8	0.95572
588.0	0.9554
588.2	0.95385
588.4	0.9542
588.6	0.9572
588.8	0.95709
589.0	0.95576
589.2	0.95608
589.4	0.95556
589.6	0.95466
589.8	0.9544
590.0	0.95471
590.2	0.95826
590.4	0.95839
590.6	0.95928
590.8	0.95945
591.0	0.96068
591.2	0.96131
591.4	0.96216
591.6	0.9628
591.8	0.96494
592.0	0.96614
592.2	0.9675
592.4	0.96894
592.6	0.96778
592.8	0.96624
593.0	0.96611
593.2	0.96655
593.4	0.96475
593.6	0.96239
593.8	0.96045
594.0	0.96065
594.2	0.96169
594.4	0.96195
594.6	0.96059
594.8	0.95917
595.0	0.95902
595.2	0.95865
595.4	0.95801
595.6	0.9594
595.8	0.95712
596.0	0.958
596.2	0.95764
596.4	0.95802
596.6	0.95816
596.8	0.95723
597.0	0.95695
597.2	0.95714
597.4	0.95805
597.6	0.95759
597.8	0.95683
598.0	0.95782
598.2	0.96039
598.4	0.96094
598.6	0.96049
598.8	0.96124
599.0	0.96205
599.2	0.96427
599.4	0.96702
599.6	0.96882
599.8	0.96982
600.0	0.97123
600.2	0.97276
600.4	0.97333
600.6	0.97202
600.8	0.96985
601.0	0.97103
601.2	0.97184
601.4	0.971
601.6	0.97145
601.8	0.97243
602.0	0.97283
602.2	0.97243
602.4	0.97273
602.6	0.97353
602.8	0.97326
603.0	0.97287
603.2	0.97089
603.4	0.96947
603.6	0.96839
603.8	0.96576
604.0	0.96346
604.2	0.96209
604.4	0.96367
604.6	0.96208
604.8	0.961
605.0	0.95933
605.2	0.95891
605.4	0.9588
605.6	0.96059
605.8	0.96077
606.0	0.96158
606.2	0.96167
606.4	0.96043
606.6	0.95816
606.8	0.95814
607.0	0.96079
607.2	0.96235
607.4	0.96365
607.6	0.96523
607.8	0.9642
608.0	0.96655
608.2	0.96844
608.4	0.9684
608.6	0.96975
608.8	0.97093
609.0	0.97123
609.2	0.97216
609.4	0.97361
609.6	0.97591
609.8	0.97497
610.0	0.97659
610.2	0.97746
610.4	0.97664
610.6	0.97621
610.8	0.97444
611.0	0.97419
611.2	0.97415
611.4	0.97358
611.6	0.97503
611.8	0.97478
612.0	0.97412
612.2	0.97341
612.4	0.97207
612.6	0.97132
612.8	0.97167
613.0	0.96913
613.2	0.96965
613.4	0.97178
613.6	0.96831
613.8	0.96313
614.0	0.96443
614.2	0.96696
614.4	0.9668
614.6	0.9657
614.8	0.96551
615.0	0.96456
615.2	0.96131
615.4	0.96123
615.6	0.96061
615.8	0.963
616.0	0.96302
616.2	0.96407
616.4	0.96487
616.6	0.96589
616.8	0.96798
617.0	0.97103
617.2	0.97117
617.4	0.97166
617.6	0.97061
617.8	0.97188
618.0	0.97191
618.2	0.9708
618.4	0.96998
618.6	0.97165
618.8	0.9724
619.0	0.97351
619.2	0.97581
619.4	0.97754
619.6	0.97956
619.8	0.9786
620.0	0.97758
620.2	0.97673
620.4	0.97954
620.6	0.97738
620.8	0.97616
621.0	0.97658
621.2	0.97528
621.4	0.97469
621.6	0.97244
621.8	0.97113
622.0	0.96985
622.2	0.96867
622.4	0.96896
622.6	0.96802
622.8	0.96735
623.0	0.96594
623.2	0.9641
623.4	0.96337
623.6	0.96541
623.8	0.96599
624.0	0.96479
624.2	0.96516
624.4	0.96459
624.6	0.9654
624.8	0.96401
625.0	0.9654
625.2	0.96507
625.4	0.96594
625.6	0.96733
625.8	0.9684
626.0	0.96821
626.2	0.96947
626.4	0.97007
626.6	0.96949
626.8	0.96998
627.0	0.97158
627.2	0.97222
627.4	0.97099
627.6	0.97066
627.8	0.97056
628.0	0.97225
628.2	0.97326
628.4	0.97512
628.6	0.97566
628.8	0.97663
629.0	0.97791
629.2	0.97747
629.4	0.97829
629.6	0.97472
629.8	0.97473
630.0	0.97519
630.2	0.97222
630.4	0.97113
630.6	0.96931
630.8	0.96893
631.0	0.96983
631.2	0.96992
631.4	0.97223
631.6	0.97259
631.8	0.97301
632.0	0.97134
632.2	0.96725
632.4	0.96363
632.6	0.96181
632.8	0.96417
633.0	0.96327
633.2	0.96403
633.4	0.96329
633.6	0.96216
633.8	0.96071
634.0	0.95886
634.2	0.95956
634.4	0.96173
634.6	0.96328
634.8	0.9633
635.0	0.96379
635.2	0.96434
635.4	0.96575
635.6	0.96807
635.8	0.9682
636.0	0.96915
636.2	0.96977
636.4	0.96983
636.6	0.96787
636.8	0.96697
637.0	0.96947
637.2	0.96871
637.4	0.96887
637.6	0.96963
637.8	0.97363
638.0	0.97439
638.2	0.97129
638.4	0.96846
638.6	0.96778
638.8	0.96814
639.0	0.96982
639.2	0.97209
639.4	0.97319
639.6	0.97214
639.8	0.9727
640.0	0.97149
640.2	0.97145
640.4	0.97032
640.6	0.96944
640.8	0.96766
641.0	0.9705
641.2	0.97092
641.4	0.97014
641.6	0.96961
641.8	0.96501
642.0	0.96229
642.2	0.96335
642.4	0.96227
642.6	0.96383
642.8	0.96311
643.0	0.96206
643.2	0.95905
643.4	0.95785
643.6	0.96054
643.8	0.95882
644.0	0.95844
644.2	0.95994
644.4	0.96106
644.6	0.96148
644.8	0.96086
645.0	0.95908
645.2	0.95802
645.4	0.95808
645.6	0.95958
645.8	0.96193
646.0	0.96203
646.2	0.96101
646.4	0.95979
646.6	0.96154
646.8	0.9631
647.0	0.96422
647.2	0.96589
647.4	0.96768
647.6	0.96847
647.8	0.96794
648.0	0.96764
648.2	0.96825
648.4	0.96965
648.6	0.97046
648.8	0.97003
649.0	0.97035
649.2	0.97272
649.4	0.97145
649.6	0.97157
649.8	0.97248
650.0	0.97248
650.2	0.97166
650.4	0.96966
650.6	0.97157
650.8	0.97253
651.0	0.96986
651.2	0.97076
651.4	0.97167
651.6	0.97163
651.8	0.97168
652.0	0.97196
652.2	0.97135
652.4	0.97304
652.6	0.9712
652.8	0.9682
653.0	0.96688
653.2	0.96677
653.4	0.96536
653.6	0.96351
653.8	0.96444
654.0	0.96422
654.2	0.96426
654.4	0.96344
654.6	0.96316
654.8	0.96715
655.0	0.96567
655.2	0.96557
655.4	0.96641
655.6	0.96657
655.8	0.96775
656.0	0.96972
656.2	0.97025
656.4	0.97193
656.6	0.96885
656.8	0.96742
657.0	0.96656
657.2	0.96663
657.4	0.96518
657.6	0.96643
657.8	0.9663
658.0	0.96692
658.2	0.96838
658.4	0.96943
658.6	0.96983
658.8	0.9702
659.0	0.97225
659.2	0.97224
659.4	0.97102
659.6	0.9712
659.8	0.97141
660.0	0.97003
660.2	0.97123
660.4	0.97182
660.6	0.96943
660.8	0.97067
661.0	0.97163
661.2	0.97241
661.4	0.9713
661.6	0.96956
661.8	0.96896
662.0	0.96864
662.2	0.96994
662.4	0.96664
662.6	0.96862
662.8	0.97006
663.0	0.96998
663.2	0.96926
663.4	0.96583
663.6	0.96409
663.8	0.96633
664.0	0.968
664.2	0.96833
664.4	0.9671
664.6	0.96581
664.8	0.9652
665.0	0.96209
665.2	0.96254
665.4	0.96284
665.6	0.96281
665.8	0.96231
666.0	0.96435
666.2	0.9634
666.4	0.96383
666.6	0.96305
666.8	0.96193
667.0	0.96172
667.2	0.96348
667.4	0.95797
667.6	0.95889
667.8	0.96186
668.0	0.96384
668.2	0.96343
668.4	0.96261
668.6	0.96082
668.8	0.9624
669.0	0.96252
669.2	0.96385
669.4	0.96559
669.6	0.96795
669.8	0.9691
670.0	0.96978
670.2	0.96968
670.4	0.97071
670.6	0.96999
670.8	0.96993
671.0	0.96998
671.2	0.97123
671.4	0.97061
671.6	0.96981
671.8	0.96956
672.0	0.96755
672.2	0.96843
672.4	0.96814
672.6	0.96888
672.8	0.96804
673.0	0.96806
673.2	0.96778
673.4	0.96682
673.6	0.96882
673.8	0.96832
674.0	0.96696
674.2	0.96537
674.4	0.96481
674.6	0.96478
674.8	0.96522
675.0	0.96422
675.2	0.96484
675.4	0.96527
675.6	0.96271
675.8	0.96207
676.0	0.96329
676.2	0.96346
676.4	0.96056
676.6	0.9611
676.8	0.96083
677.0	0.95833
677.2	0.95983
677.4	0.95957
677.6	0.95928
677.8	0.95969
678.0	0.95992
678.2	0.96026
678.4	0.961
678.6	0.96027
678.8	0.96161
679.0	0.96209
679.2	0.96209
679.4	0.96258
679.6	0.96357
679.8	0.9653
680.0	0.96425
680.2	0.96434
680.4	0.9654
680.6	0.96661
680.8	0.96556
681.0	0.96414
681.2	0.96363
681.4	0.96219
681.6	0.96283
681.8	0.96418
682.0	0.96275
682.2	0.96435
682.4	0.96689
682.6	0.97009
682.8	0.96966
683.0	0.9691
683.2	0.97162
683.4	0.97132
683.6	0.96904
683.8	0.96986
684.0	0.97023
684.2	0.97168
684.4	0.97159
684.6	0.97222
684.8	0.97084
685.0	0.97023
685.2	0.97146
685.4	0.97045
685.6	0.96789
685.8	0.96674
686.0	0.96499
686.2	0.96612
686.4	0.96765
686.6	0.96884
686.8	0.96818
687.0	0.96983
687.2	0.96914
687.4	0.96846
687.6	0.96621
687.8	0.96365
688.0	0.96125
688.2	0.96043
688.4	0.95978
688.6	0.95978
688.8	0.96019
689.0	0.9608
689.2	0.96139
689.4	0.96156
689.6	0.96251
689.8	0.96119
690.0	0.96014
690.2	0.96127
690.4	0.96095
690.6	0.95864
690.8	0.95751
691.0	0.95508
691.2	0.9587
691.4	0.96119
691.6	0.96241
691.8	0.96223
692.0	0.96092
692.2	0.96365
692.4	0.96382
692.6	0.96474
692.8	0.96564
693.0	0.96346
693.2	0.96236
693.4	0.96483
693.6	0.96534
693.8	0.9683
694.0	0.96952
694.2	0.97005
694.4	0.97023
694.6	0.97192
694.8	0.97022
695.0	0.97219
695.2	0.97427
695.4	0.97431
695.6	0.97357
695.8	0.97351
696.0	0.9709
696.2	0.9708
696.4	0.97131
696.6	0.97179
696.8	0.97154
697.0	0.97186
697.2	0.97271
697.4	0.96992
697.6	0.9705
697.8	0.96961
698.0	0.96892
698.2	0.96738
698.4	0.96719
698.6	0.9683
698.8	0.96853
699.0	0.96654
699.2	0.96462
699.4	0.9628
699.6	0.96204
699.8	0.96594
700.0	0.96494
700.2	0.967
700.4	0.96836
700.6	0.9664
700.8	0.96556
701.0	0.96506
701.2	0.96637
701.4	0.96733
701.6	0.96553
701.8	0.96572
702.0	0.96534
702.2	0.96307
702.4	0.95999
702.6	0.95967
702.8	0.96134
703.0	0.96382
703.2	0.96256
703.4	0.96372
703.6	0.96629
703.8	0.9675
704.0	0.96504
704.2	0.96391
704.4	0.96445
704.6	0.96607
704.8	0.96417
705.0	0.96255
705.2	0.96495
705.4	0.96487
705.6	0.96753
705.8	0.96813
706.0	0.96743
706.2	0.96578
706.4	0.96506
706.6	0.9687
706.8	0.96945
707.0	0.96991
707.2	0.97055
707.4	0.9687
707.6	0.96772
707.8	0.96976
708.0	0.96803
708.2	0.96587
708.4	0.96674
708.6	0.96882
708.8	0.96987
709.0	0.96981
709.2	0.97187
709.4	0.97245
709.6	0.97279
709.8	0.97367
710.0	0.97277
710.2	0.97101
710.4	0.97016
710.6	0.97035
710.8	0.97162
711.0	0.97065
711.2	0.97104
711.4	0.97252
711.6	0.96947
711.8	0.96648
712.0	0.96725
712.2	0.96647
712.4	0.96855
712.6	0.96887
712.8	0.96742
713.0	0.96943
713.2	0.97027
713.4	0.973
713.6	0.9743
713.8	0.97467
714.0	0.97394
714.2	0.97174
714.4	0.97158
714.6	0.96665
714.8	0.96566
715.0	0.96586
715.2	0.966
715.4	0.96522
715.6	0.96802
715.8	0.9705
716.0	0.97108
716.2	0.96807
716.4	0.96409
716.6	0.96619
716.8	0.96802
717.0	0.97048
717.2	0.96798
717.4	0.96834
717.6	0.97061
717.8	0.96985
718.0	0.96906
718.2	0.96972
718.4	0.96984
718.6	0.96821
718.8	0.96863
719.0	0.96835
719.2	0.96733
719.4	0.96653
719.6	0.96541
719.8	0.9652
720.0	0.96459
720.2	0.96686
720.4	0.96611
720.6	0.96811
720.8	0.96929
721.0	0.97038
721.2	0.96816
721.4	0.96871
721.6	0.96876
721.8	0.96717
722.0	0.97002
722.2	0.97192
722.4	0.97108
722.6	0.96886
722.8	0.96864
723.0	0.9703
723.2	0.97167
723.4	0.97089
723.6	0.97054
723.8	0.97213
724.0	0.97084
724.2	0.96992
724.4	0.96751
724.6	0.96777
724.8	0.96665
725.0	0.9682
725.2	0.96866
725.4	0.97002
725.6	0.97087
725.8	0.96934
726.0	0.96863
726.2	0.96847
726.4	0.96743
726.6	0.96889
726.8	0.9708
727.0	0.96971
727.2	0.96901
727.4	0.97012
727.6	0.97193
727.8	0.9709
728.0	0.96756
728.2	0.96759
728.4	0.96634
728.6	0.96894
728.8	0.96917
729.0	0.96742
729.2	0.96841
729.4	0.96704
729.6	0.96893
729.8	0.96784
730.0	0.96683
730.2	0.96859
730.4	0.97141
730.6	0.96984
730.8	0.97015
731.0	0.96992
731.2	0.96926
731.4	0.97024
731.6	0.96864
731.8	0.96831
732.0	0.97127
732.2	0.97084
732.4	0.96858
732.6	0.96763
732.8	0.96877
733.0	0.96967
733.2	0.9723
733.4	0.97118
733.6	0.9708
733.8	0.97084
734.0	0.97092
734.2	0.97313
734.4	0.97647
734.6	0.97825
734.8	0.97961
735.0	0.97995
735.2	0.9748
735.4	0.97376
735.6	0.97051
735.8	0.97134
736.0	0.97258
736.2	0.97274
736.4	0.97434
736.6	0.97401
736.8	0.9751
737.0	0.97655
737.2	0.97684
737.4	0.97555
737.6	0.97357
737.8	0.97074
738.0	0.96978
738.2	0.97065
738.4	0.97303
738.6	0.97465
738.8	0.97582
739.0	0.97574
739.2	0.97578
739.4	0.9773
739.6	0.97601
739.8	0.97451
740.0	0.96915
740.2	0.96713
740.4	0.96858
740.6	0.96917
740.8	0.96938
741.0	0.96783
741.2	0.97127
741.4	0.97072
741.6	0.97017
741.8	0.96926
742.0	0.96724
742.2	0.96777
742.4	0.96688
742.6	0.96862
742.8	0.96913
743.0	0.97009
743.2	0.96841
743.4	0.97099
743.6	0.97217
743.8	0.97304
744.0	0.9719
744.2	0.97168
744.4	0.96994
744.6	0.96867
744.8	0.96983
745.0	0.97126
745.2	0.97074
745.4	0.97047
745.6	0.9684
745.8	0.96747
746.0	0.96793
746.2	0.96872
746.4	0.96856
746.6	0.96978
746.8	0.96981
747.0	0.96933
747.2	0.9698
747.4	0.96797
747.6	0.96774
747.8	0.96885
748.0	0.96993
748.2	0.97214
748.4	0.97128
748.6	0.9695
748.8	0.97159
749.0	0.97101
749.2	0.97206
749.4	0.9708
749.6	0.97163
749.8	0.97431
750.0	0.97681
750.2	0.97679
750.4	0.97422
750.6	0.97409
750.8	0.97267
751.0	0.97166
751.2	0.9705
751.4	0.97133
751.6	0.96994
751.8	0.96951
752.0	0.97027
752.2	0.96935
752.4	0.96563
752.6	0.96479
752.8	0.96559
753.0	0.96794
753.2	0.96902
753.4	0.97124
753.6	0.97224
753.8	0.97209
754.0	0.97242
754.2	0.97221
754.4	0.97117
754.6	0.97002
754.8	0.96927
755.0	0.9706
755.2	0.97092
755.4	0.97161
755.6	0.97363
755.8	0.97875
756.0	0.97794
756.2	0.97698
756.4	0.97518
756.6	0.97177
756.8	0.97213
757.0	0.97408
757.2	0.97447
757.4	0.9727
757.6	0.97185
757.8	0.97219
758.0	0.97263
758.2	0.9746
758.4	0.97586
758.6	0.97376
758.8	0.97003
759.0	0.96992
759.2	0.97083
759.4	0.97062
759.6	0.97162
759.8	0.97365
760.0	0.97309
760.2	0.97251
760.4	0.97484
760.6	0.97482
760.8	0.97596
761.0	0.97561
761.2	0.97412
761.4	0.9719
761.6	0.97202
761.8	0.97041
762.0	0.97064
762.2	0.97076
762.4	0.96972
762.6	0.97073
762.8	0.97174
763.0	0.97121
763.2	0.97119
763.4	0.9723
763.6	0.96997
763.8	0.96911
764.0	0.9699
764.2	0.97024
764.4	0.96908
764.6	0.96992
764.8	0.96929
765.0	0.97072
765.2	0.97097
765.4	0.96948
765.6	0.96958
765.8	0.97035
766.0	0.97007
766.2	0.97003
766.4	0.97059
766.6	0.97079
766.8	0.9676
767.0	0.96531
767.2	0.96673
767.4	0.96704
767.6	0.967
767.8	0.96961
768.0	0.9696
768.2	0.97173
768.4	0.97232
768.6	0.97284
768.8	0.97252
769.0	0.97357
769.2	0.97441
769.4	0.97356
769.6	0.97181
769.8	0.97058
770.0	0.9705
770.2	0.97268
770.4	0.97264
770.6	0.97282
770.8	0.97096
771.0	0.97054
771.2	0.97262
771.4	0.97528
771.6	0.97484
771.8	0.97631
772.0	0.97564
772.2	0.9742
772.4	0.97341
772.6	0.97466
772.8	0.97265
773.0	0.97253
773.2	0.97516
773.4	0.97475
773.6	0.97571
773.8	0.97636
774.0	0.97758
774.2	0.97665
774.4	0.97589
774.6	0.97375
774.8	0.97294
775.0	0.97347
775.2	0.97361
775.4	0.97283
775.6	0.9713
775.8	0.96974
776.0	0.96891
776.2	0.97271
776.4	0.97527
776.6	0.97673
776.8	0.97548
777.0	0.97384
777.2	0.97395
777.4	0.97311
777.6	0.97052
777.8	0.9678
778.0	0.963
778.2	0.96096
778.4	0.96242
778.6	0.96219
778.8	0.96366
779.0	0.96428
779.2	0.96489
779.4	0.96643
779.6	0.96484
779.8	0.96553
780.0	0.96848
780.2	0.97037
780.4	0.97024
780.6	0.97047
780.8	0.96883
781.0	0.96868
781.2	0.96782
781.4	0.96863
781.6	0.96923
781.8	0.96901
782.0	0.96792
782.2	0.96811
782.4	0.96727
782.6	0.96738
782.8	0.97236
783.0	0.9719
783.2	0.97071
783.4	0.97028
783.6	0.97373
783.8	0.97202
784.0	0.97058
784.2	0.96956
784.4	0.97068
784.6	0.97149
784.8	0.96978
785.0	0.96976
785.2	0.97051
785.4	0.97157
785.6	0.9727
785.8	0.97326
786.0	0.97279
786.2	0.96846
786.4	0.96826
786.6	0.96973
786.8	0.9698
787.0	0.97007
787.2	0.97245
787.4	0.97326
787.6	0.97277
787.8	0.97462
788.0	0.97681
788.2	0.97445
788.4	0.97259
788.6	0.97155
788.8	0.97143
789.0	0.97315
789.2	0.97187
789.4	0.9693
789.6	0.96746
789.8	0.96964
790.0	0.97277
790.2	0.97413
790.4	0.97527
790.6	0.97474
790.8	0.97322
791.0	0.97292
791.2	0.97289
791.4	0.97134
791.6	0.96941
791.8	0.96818
792.0	0.96815
792.2	0.97073
792.4	0.97113
792.6	0.97033
792.8	0.9701
793.0	0.96823
793.2	0.96589
793.4	0.96357
793.6	0.96369
793.8	0.96515
794.0	0.9655
794.2	0.96797
794.4	0.97031
794.6	0.96978
794.8	0.96704
795.0	0.96612
795.2	0.96737
795.4	0.9667
795.6	0.97139
795.8	0.97397
796.0	0.97217
796.2	0.97155
796.4	0.97182
796.6	0.97026
796.8	0.96792
797.0	0.96728
797.2	0.96838
797.4	0.97162
797.6	0.97322
797.8	0.97073
798.0	0.96828
798.2	0.96836
798.4	0.96853
798.6	0.96958
798.8	0.97215
799.0	0.97138
799.2	0.96827
799.4	0.9687
799.6	0.97086
799.8	0.97056
800.0	0.96987
800.2	0.96934
800.4	0.96954
800.6	0.97098
800.8	0.97096
801.0	0.97044
801.2	0.97232
801.4	0.97391
801.6	0.97399
801.8	0.9745
802.0	0.97288
802.2	0.97115
802.4	0.97281
802.6	0.97538
802.8	0.97548
803.0	0.97442
803.2	0.97485
803.4	0.97748
803.6	0.979
803.8	0.97817
804.0	0.97875
804.2	0.97679
804.4	0.97691
804.6	0.98003
804.8	0.98117
805.0	0.97913
805.2	0.97617
805.4	0.97483
805.6	0.9736
805.8	0.97461
806.0	0.97425
806.2	0.97246
806.4	0.9714
806.6	0.97011
806.8	0.96919
807.0	0.96688
807.2	0.9633
807.4	0.96547
807.6	0.9697
807.8	0.97191
808.0	0.97053
808.2	0.96986
808.4	0.97271
808.6	0.97463
808.8	0.97389
809.0	0.97136
809.2	0.97422
809.4	0.97672
809.6	0.97764
809.8	0.97708
810.0	0.97396
810.2	0.97215
810.4	0.97106
810.6	0.96932
810.8	0.96984
811.0	0.97104
811.2	0.97362
811.4	0.97477
811.6	0.97513
811.8	0.97514
812.0	0.97519
812.2	0.97517
812.4	0.97497
812.6	0.97463
812.8	0.97132
813.0	0.97065
813.2	0.97137
813.4	0.97402
813.6	0.97367
813.8	0.97463
814.0	0.97426
814.2	0.97081
814.4	0.97157
814.6	0.97126
814.8	0.96865
815.0	0.96966
815.2	0.97129
815.4	0.97306
815.6	0.97349
815.8	0.97491
816.0	0.97318
816.2	0.97272
816.4	0.97225
816.6	0.97239
816.8	0.97375
817.0	0.97107
817.2	0.97381
817.4	0.97261
817.6	0.97061
817.8	0.97103
818.0	0.97415
818.2	0.97379
818.4	0.97402
818.6	0.97329
818.8	0.9727
819.0	0.97254
819.2	0.97078
819.4	0.97132
819.6	0.97305
819.8	0.97313
820.0	0.97152
820.2	0.97017
820.4	0.9728
820.6	0.9697
820.8	0.96857
821.0	0.97108
821.2	0.97346
821.4	0.97254
821.6	0.9744
821.8	0.97711
822.0	0.97819
822.2	0.97608
822.4	0.97284
822.6	0.97287
822.8	0.97337
823.0	0.97401
823.2	0.97151
823.4	0.97013
823.6	0.97098
823.8	0.97243
824.0	0.97521
824.2	0.97589
824.4	0.97554
824.6	0.97565
824.8	0.97543
825.0	0.97519
825.2	0.97694
825.4	0.97926
825.6	0.97717
825.8	0.97545
826.0	0.97614
826.2	0.97372
826.4	0.97267
826.6	0.97142
826.8	0.96958
827.0	0.96902
827.2	0.96708
827.4	0.97056
827.6	0.97148
827.8	0.97134
828.0	0.97261
828.2	0.97344
828.4	0.97624
828.6	0.97509
828.8	0.97154
829.0	0.97137
829.2	0.97169
829.4	0.97177
829.6	0.97121
829.8	0.9725
830.0	0.97141
830.2	0.97074
830.4	0.97071
830.6	0.96864
830.8	0.96856
831.0	0.96976
831.2	0.96985
831.4	0.96769
831.6	0.96659
831.8	0.96532
832.0	0.96686
832.2	0.96767
832.4	0.96591
832.6	0.96551
832.8	0.9659
833.0	0.96879
833.2	0.97192
833.4	0.97292
833.6	0.97148
833.8	0.96958
834.0	0.96957
834.2	0.96907
834.4	0.96896
834.6	0.96979
834.8	0.97355
835.0	0.9735
835.2	0.97242
835.4	0.97435
835.6	0.97579
835.8	0.97523
836.0	0.97773
836.2	0.97773
836.4	0.97505
836.6	0.97589
836.8	0.97461
837.0	0.97382
837.2	0.97524
837.4	0.97614
837.6	0.97575
837.8	0.97678
838.0	0.97485
838.2	0.97143
838.4	0.96903
838.6	0.97291
838.8	0.97561
839.0	0.9794
839.2	0.98365
839.4	0.98446
839.6	0.98431
839.8	0.98326
840.0	0.98025
840.2	0.98027
840.4	0.98039
840.6	0.97996
840.8	0.98023
841.0	0.97785
841.2	0.97643
841.4	0.97653
841.6	0.97291
841.8	0.97101
842.0	0.97319
842.2	0.97413
842.4	0.97751
842.6	0.97824
842.8	0.97752
843.0	0.9757
843.2	0.97608
843.4	0.97496
843.6	0.9743
843.8	0.97306
844.0	0.97518
844.2	0.97821
844.4	0.97981
844.6	0.98181
844.8	0.98
845.0	0.97776
845.2	0.97543
845.4	0.97332
845.6	0.97144
845.8	0.97052
846.0	0.96863
846.2	0.96768
846.4	0.96969
846.6	0.97298
846.8	0.97347
847.0	0.97427
847.2	0.97446
847.4	0.97394
847.6	0.97219
847.8	0.97057
848.0	0.96863
848.2	0.96668
848.4	0.96549
848.6	0.96424
848.8	0.96531
849.0	0.96396
849.2	0.96365
849.4	0.96468
849.6	0.96606
849.8	0.96493
850.0	0.96238
850.2	0.96422
850.4	0.96587
850.6	0.96538
850.8	0.9646
851.0	0.9633
851.2	0.96357
851.4	0.9614
851.6	0.96071
851.8	0.96216
852.0	0.96396
852.2	0.96493
852.4	0.96377
852.6	0.96458
852.8	0.96402
853.0	0.96502
853.2	0.96679
853.4	0.96778
853.6	0.96758
853.8	0.96771
854.0	0.96905
854.2	0.9709
854.4	0.9705
854.6	0.96856
854.8	0.96879
855.0	0.96912
855.2	0.97003
855.4	0.97223
855.6	0.97112
855.8	0.96824
856.0	0.96926
856.2	0.96949
856.4	0.97187
856.6	0.97225
856.8	0.97396
857.0	0.97461
857.2	0.97159
857.4	0.97252
857.6	0.97508
857.8	0.97551
858.0	0.97523
858.2	0.97113
858.4	0.96834
858.6	0.96881
858.8	0.96986
859.0	0.97157
859.2	0.97158
859.4	0.97137
859.6	0.97314
859.8	0.97481
860.0	0.97747
860.2	0.97847
860.4	0.97757
860.6	0.97619
860.8	0.97276
861.0	0.97034
861.2	0.96968
861.4	0.97002
861.6	0.96919
861.8	0.96805
862.0	0.9647
862.2	0.96393
862.4	0.96533
862.6	0.96725
862.8	0.96812
863.0	0.97069
863.2	0.97097
863.4	0.97164
863.6	0.97528
863.8	0.97601
864.0	0.97673
864.2	0.97849
864.4	0.97793
864.6	0.97508
864.8	0.96997
865.0	0.96583
865.2	0.96824
865.4	0.97178
865.6	0.97401
865.8	0.97234
866.0	0.97196
866.2	0.97275
866.4	0.97376
866.6	0.9707
866.8	0.97097
867.0	0.97346
867.2	0.97602
867.4	0.97627
867.6	0.9772
867.8	0.97712
868.0	0.97454
868.2	0.97471
868.4	0.97404
868.6	0.97232
868.8	0.97031
869.0	0.9695
869.2	0.97051
869.4	0.9707
869.6	0.97174
869.8	0.97296
870.0	0.97124
870.2	0.96827
870.4	0.96815
870.6	0.97093
870.8	0.97107
871.0	0.96967
871.2	0.97195
871.4	0.97427
871.6	0.97442
871.8	0.97573
872.0	0.97554
872.2	0.97436
872.4	0.97378
872.6	0.97138
872.8	0.97019
873.0	0.9708
873.2	0.97122
873.4	0.97112
873.6	0.97001
873.8	0.9674
874.0	0.96717
874.2	0.96987
874.4	0.97137
874.6	0.97167
874.8	0.9732
875.0	0.97485
875.2	0.97324
875.4	0.97399
875.6	0.97533
875.8	0.97297
876.0	0.97068
876.2	0.97026
876.4	0.96927
876.6	0.97174
876.8	0.97245
877.0	0.97338
877.2	0.97536
877.4	0.97358
877.6	0.97365
877.8	0.97708
878.0	0.97826
878.2	0.97766
878.4	0.98101
878.6	0.9814
878.8	0.9806
879.0	0.97999
879.2	0.98137
879.4	0.97891
879.6	0.97721
879.8	0.97671
880.0	0.97815
880.2	0.97781
880.4	0.97707
880.6	0.9771
880.8	0.97814
881.0	0.98108
881.2	0.98053
881.4	0.97933
881.6	0.98001
881.8	0.97911
882.0	0.97875
882.2	0.97967
882.4	0.97765
882.6	0.97708
882.8	0.97694
883.0	0.97777
883.2	0.97649
883.4	0.97531
883.6	0.9761
883.8	0.97507
884.0	0.97479
884.2	0.97655
884.4	0.97762
884.6	0.97624
884.8	0.97418
885.0	0.97443
885.2	0.97376
885.4	0.97418
885.6	0.97607
885.8	0.97724
886.0	0.97763
886.2	0.97596
886.4	0.97294
886.6	0.97084
886.8	0.96987
887.0	0.97089
887.2	0.97451
887.4	0.97633
887.6	0.97742
887.8	0.97688
888.0	0.9757
888.2	0.97577
888.4	0.97655
888.6	0.97469
888.8	0.97527
889.0	0.97629
889.2	0.97791
889.4	0.97795
889.6	0.97614
889.8	0.97396
890.0	0.97421
890.2	0.97506
890.4	0.9757
890.6	0.97303
890.8	0.97094
891.0	0.97476
891.2	0.97369
891.4	0.97365
891.6	0.97413
891.8	0.97295
892.0	0.97614
892.2	0.97811
892.4	0.97614
892.6	0.97272
892.8	0.97334
893.0	0.97566
893.2	0.97577
893.4	0.97533
893.6	0.97513
893.8	0.97567
894.0	0.97562
894.2	0.97581
894.4	0.97603
894.6	0.97516
894.8	0.97624
895.0	0.97578
895.2	0.97753
895.4	0.97803
895.6	0.97749
895.8	0.97845
896.0	0.97877
896.2	0.97773
896.4	0.97854
896.6	0.97824
896.8	0.97387
897.0	0.97301
897.2	0.97575
897.4	0.9762
897.6	0.97555
897.8	0.97726
898.0	0.97939
898.2	0.97814
898.4	0.97712
898.6	0.97653
898.8	0.97628
899.0	0.97524
899.2	0.97345
899.4	0.97184
899.6	0.97341
899.8	0.97738
900.0	0.97924
900.2	0.98114
900.4	0.98233
900.6	0.98327
900.8	0.98265
901.0	0.98279
901.2	0.98351
901.4	0.9816
901.6	0.9793
901.8	0.97913
902.0	0.9797
902.2	0.97926
902.4	0.97887
902.6	0.97988
902.8	0.97892
903.0	0.97763
903.2	0.9762
903.4	0.97759
903.6	0.97989
903.8	0.97997
904.0	0.97978
904.2	0.97935
904.4	0.97724
904.6	0.97606
904.8	0.97152
905.0	0.9705
905.2	0.97092
905.4	0.97167
905.6	0.97226
905.8	0.97289
906.0	0.9735
906.2	0.97316
906.4	0.97446
906.6	0.97515
906.8	0.97445
907.0	0.97574
907.2	0.97611
907.4	0.97474
907.6	0.97569
907.8	0.97426
908.0	0.97094
908.2	0.9715
908.4	0.97371
908.6	0.9743
908.8	0.97423
909.0	0.97293
909.2	0.97127
909.4	0.97216
909.6	0.97383
909.8	0.97525
910.0	0.9749
910.2	0.97405
910.4	0.97349
910.6	0.97454
910.8	0.97482
911.0	0.97371
911.2	0.97244
911.4	0.97107
911.6	0.96894
911.8	0.97048
912.0	0.97432
912.2	0.97499
912.4	0.97242
912.6	0.97196
912.8	0.97097
913.0	0.97112
913.2	0.97461
913.4	0.97682
913.6	0.97506
913.8	0.97478
914.0	0.97353
914.2	0.97483
914.4	0.97469
914.6	0.97165
914.8	0.97203
915.0	0.97315
915.2	0.97485
915.4	0.97697
915.6	0.97681
915.8	0.97747
916.0	0.97654
916.2	0.97598
916.4	0.97709
916.6	0.98124
916.8	0.98338
917.0	0.98315
917.2	0.98381
917.4	0.98338
917.6	0.98223
917.8	0.98119
918.0	0.98292
918.2	0.98325
918.4	0.9843
918.6	0.98448
918.8	0.98309
919.0	0.98393
919.2	0.98407
919.4	0.98335
919.6	0.98259
919.8	0.97985
920.0	0.97801
920.2	0.97701
920.4	0.97781
920.6	0.9766
920.8	0.97757
921.0	0.98014
921.2	0.98132
921.4	0.9812
921.6	0.97804
921.8	0.97745
922.0	0.9811
922.2	0.98435
922.4	0.98428
922.6	0.98315
922.8	0.98111
923.0	0.98092
923.2	0.97954
923.4	0.98002
923.6	0.98195
923.8	0.98126
924.0	0.98018
924.2	0.98118
924.4	0.98274
924.6	0.98511
924.8	0.98584
925.0	0.98733
925.2	0.98732
925.4	0.98469
925.6	0.984
925.8	0.98207
926.0	0.98148
926.2	0.98263
926.4	0.98253
926.6	0.98011
926.8	0.97895
927.0	0.98022
927.2	0.98109
927.4	0.97873
927.6	0.97641
927.8	0.97495
928.0	0.9741
928.2	0.97357
928.4	0.97422
928.6	0.97481
928.8	0.97509
929.0	0.97405
929.2	0.97429
929.4	0.97474
929.6	0.97564
929.8	0.97895
930.0	0.97993
930.2	0.97606
930.4	0.97562
930.6	0.98053
930.8	0.97988
931.0	0.97967
931.2	0.97823
931.4	0.97745
931.6	0.9753
931.8	0.97471
932.0	0.97603
932.2	0.97924
932.4	0.97951
932.6	0.97428
932.8	0.9769
933.0	0.97737
933.2	0.97852
933.4	0.97488
933.6	0.97285
933.8	0.97268
934.0	0.96736
934.2	0.97286
934.4	0.96701
934.6	0.96298
934.8	0.96789
935.0	0.97094
935.2	0.97429
935.4	0.97278
935.6	0.9725
935.8	0.97359
936.0	0.97312
936.2	0.9759
936.4	0.97852
936.6	0.97685
936.8	0.97371
937.0	0.97264
937.2	0.96944
937.4	0.97396
937.6	0.97603
937.8	0.97578
938.0	0.97973
938.2	0.97469
938.4	0.97889
938.6	0.98195
938.8	0.97962
939.0	0.98014
939.2	0.97816
939.4	0.9765
939.6	0.97798
939.8	0.98042
940.0	0.97836
940.2	0.97757
940.4	0.9771
940.6	0.97827
940.8	0.97918
941.0	0.97896
941.2	0.97748
941.4	0.97975
941.6	0.98103
941.8	0.98294
942.0	0.98438
942.2	0.98218
942.4	0.98369
942.6	0.98891
942.8	0.98629
943.0	0.98775
943.2	0.98842
943.4	0.98502
943.6	0.98305
943.8	0.98051
944.0	0.98266
944.2	0.97344
944.4	0.98076
944.6	0.98264
944.8	0.97895
945.0	0.97859
945.2	0.97644
945.4	0.9768
945.6	0.97487
945.8	0.97402
946.0	0.97808
946.2	0.97649
946.4	0.98189
946.6	0.98689
946.8	0.98581
947.0	0.98115
947.2	0.98098
947.4	0.98262
947.6	0.98084
947.8	0.98192
948.0	0.98552
948.2	0.9819
948.4	0.98311
948.6	0.98409
948.8	0.98431
949.0	0.98709
949.2	0.98939
949.4	0.9908
949.6	0.98908
949.8	0.99175
950.0	0.99458
950.2	0.98657
950.4	0.98722
950.6	0.98685
950.8	0.98523
951.0	0.98289
951.2	0.98363
951.4	0.98615
951.6	0.98812
951.8	0.98453
952.0	0.98367
952.2	0.98349
952.4	0.97956
952.6	0.98067
952.8	0.98155
953.0	0.98152
953.2	0.98201
953.4	0.98036
953.6	0.98019
953.8	0.98051
954.0	0.97923
954.2	0.97794
954.4	0.98019
954.6	0.9776
954.8	0.97838
955.0	0.97867
955.2	0.98155
955.4	0.98185
955.6	0.97982
955.8	0.97608
956.0	0.97566
956.2	0.97729
956.4	0.97868
956.6	0.97685
956.8	0.97463
957.0	0.97813
957.2	0.98177
957.4	0.98286
957.6	0.98201
957.8	0.98037
958.0	0.98075
958.2	0.98101
958.4	0.98252
958.6	0.98089
958.8	0.98143
959.0	0.97909
959.2	0.97561
959.4	0.97539
959.6	0.97609
959.8	0.97788
960.0	0.97764
960.2	0.97749
960.4	0.97642
960.6	0.9732
960.8	0.97436
961.0	0.97523
961.2	0.97533
961.4	0.97728
961.6	0.97692
961.8	0.97832
962.0	0.97531
962.2	0.97153
962.4	0.97244
962.6	0.97419
962.8	0.9763
963.0	0.97749
963.2	0.97629
963.4	0.97335
963.6	0.97362
963.8	0.97342
964.0	0.97325
964.2	0.97374
964.4	0.975
964.6	0.9775
964.8	0.97708
965.0	0.9747
965.2	0.97546
965.4	0.9759
965.6	0.97513
965.8	0.97609
966.0	0.97873
966.2	0.97948
966.4	0.97911
966.6	0.98041
966.8	0.98126
967.0	0.98188
967.2	0.98078
967.4	0.97846
967.6	0.97821
967.8	0.97733
968.0	0.97617
968.2	0.97375
968.4	0.97243
968.6	0.9756
968.8	0.97767
969.0	0.97792
969.2	0.97796
969.4	0.97872
969.6	0.98032
969.8	0.98003
970.0	0.97879
970.2	0.97774
970.4	0.97802
970.6	0.98088
970.8	0.98336
971.0	0.98089
971.2	0.98054
971.4	0.98197
971.6	0.98053
971.8	0.97851
972.0	0.97842
972.2	0.9787
972.4	0.98028
972.6	0.9814
972.8	0.98197
973.0	0.98249
973.2	0.98209
973.4	0.98267
973.6	0.98445
973.8	0.98526
974.0	0.9867
974.2	0.98634
974.4	0.98686
974.6	0.98627
974.8	0.98489
975.0	0.98556
975.2	0.98509
975.4	0.98487
975.6	0.98579
975.8	0.98368
976.0	0.98159
976.2	0.98158
976.4	0.98399
976.6	0.9839
976.8	0.98033
977.0	0.97868
977.2	0.97894
977.4	0.97725
977.6	0.9776
977.8	0.97803
978.0	0.97727
978.2	0.97864
978.4	0.9806
978.6	0.98222
978.8	0.9828
979.0	0.98288
979.2	0.98161
979.4	0.97828
979.6	0.9786
979.8	0.97984
980.0	0.98194
980.2	0.98233
980.4	0.98492
980.6	0.98752
980.8	0.98595
981.0	0.98397
981.2	0.98513
981.4	0.98526
981.6	0.9828
981.8	0.98042
982.0	0.97916
982.2	0.97982
982.4	0.98055
982.6	0.98123
982.8	0.98274
983.0	0.98415
983.2	0.98291
983.4	0.98286
983.6	0.98258
983.8	0.98018
984.0	0.97924
984.2	0.98025
984.4	0.98186
984.6	0.98219
984.8	0.98176
985.0	0.98145
985.2	0.98168
985.4	0.98165
985.6	0.98236
985.8	0.9813
986.0	0.97919
986.2	0.98132
986.4	0.98176
986.6	0.9785
986.8	0.9756
987.0	0.97588
987.2	0.97572
987.4	0.97526
987.6	0.97698
987.8	0.97838
988.0	0.97732
988.2	0.97705
988.4	0.97698
988.6	0.9773
988.8	0.9788
989.0	0.97632
989.2	0.97596
989.4	0.97494
989.6	0.97435
989.8	0.97456
990.0	0.97477
990.2	0.97564
990.4	0.97604
990.6	0.97611
990.8	0.97841
991.0	0.97754
991.2	0.97546
991.4	0.97393
991.6	0.97397
991.8	0.97684
992.0	0.97914
992.2	0.97628
992.4	0.97532
992.6	0.97466
992.8	0.97567
993.0	0.97715
993.2	0.97637
993.4	0.97575
993.6	0.97253
993.8	0.96976
994.0	0.96722
994.2	0.96815
994.4	0.96719
994.6	0.96689
994.8	0.96484
995.0	0.96629
995.2	0.96744
995.4	0.96862
995.6	0.96915
995.8	0.97232
996.0	0.97316
996.2	0.97752
996.4	0.98282
996.6	0.98411
996.8	0.9852
997.0	0.98468
997.2	0.98185
997.4	0.9784
997.6	0.97772
997.8	0.97873
998.0	0.9792
998.2	0.97794
998.4	0.97764
998.6	0.97891
998.8	0.98096
999.0	0.98118
999.2	0.98049
999.4	0.9798
999.6	0.97956
999.8	0.98232
1000.0	0.97882
1000.2	0.97415
1000.4	0.97197
1000.6	0.96991
1000.8	0.96912
1001.0	0.97112
1001.2	0.97394
1001.4	0.97586
1001.6	0.97519
1001.8	0.97542
1002.0	0.97587
1002.2	0.97557
1002.4	0.97461
1002.6	0.97537
1002.8	0.97459
1003.0	0.97275
1003.2	0.97243
1003.4	0.97416
1003.6	0.97526
1003.8	0.97504
1004.0	0.97571
1004.2	0.97667
1004.4	0.97919
1004.6	0.9805
1004.8	0.98101
1005.0	0.98039
1005.2	0.98121
1005.4	0.9817
1005.6	0.9803
1005.8	0.97938
1006.0	0.98119
1006.2	0.98264
1006.4	0.98199
1006.6	0.98183
1006.8	0.98176
1007.0	0.98027
1007.2	0.97829
1007.4	0.97627
1007.6	0.97525
1007.8	0.97395
1008.0	0.97425
1008.2	0.97647
1008.4	0.9777
1008.6	0.97923
1008.8	0.98122
1009.0	0.9837
1009.2	0.98578
1009.4	0.98757
1009.6	0.98638
1009.8	0.98486
1010.0	0.98285
1010.2	0.98342
1010.4	0.98295
1010.6	0.98174
1010.8	0.98025
1011.0	0.97791
1011.2	0.9771
1011.4	0.97649
1011.6	0.97749
1011.8	0.97752
1012.0	0.97435
1012.2	0.97511
1012.4	0.97463
1012.6	0.97626
1012.8	0.98065
1013.0	0.9818
1013.2	0.98108
1013.4	0.98258
1013.6	0.98247
1013.8	0.98245
1014.0	0.98155
1014.2	0.98008
1014.4	0.97904
1014.6	0.97785
1014.8	0.97751
1015.0	0.97635
1015.2	0.97746
1015.4	0.97834
1015.6	0.97782
1015.8	0.97592
1016.0	0.973
1016.2	0.97118
1016.4	0.97235
1016.6	0.97401
1016.8	0.97398
1017.0	0.97309
1017.2	0.97263
1017.4	0.97248
1017.6	0.97375
1017.8	0.97452
1018.0	0.97455
1018.2	0.97492
1018.4	0.97625
1018.6	0.97813
1018.8	0.97718
1019.0	0.97492
1019.2	0.97326
1019.4	0.97324
1019.6	0.97512
1019.8	0.97644
1020.0	0.97862
1020.2	0.97862
1020.4	0.97657
1020.6	0.97764
1020.8	0.97634
1021.0	0.9737
1021.2	0.97078
1021.4	0.96912
1021.6	0.96815
1021.8	0.96785
1022.0	0.96869
1022.2	0.96728
1022.4	0.96643
1022.6	0.96598
1022.8	0.96298
1023.0	0.96407
1023.2	0.96506
1023.4	0.96371
1023.6	0.96191
1023.8	0.96216
1024.0	0.96189
1024.2	0.96126
1024.4	0.96296
1024.6	0.96601
1024.8	0.96744
1025.0	0.96793
1025.2	0.97101
1025.4	0.97198
1025.6	0.97279
1025.8	0.97193
1026.0	0.97323
1026.2	0.97223
1026.4	0.97384
1026.6	0.97284
1026.8	0.97246
1027.0	0.97471
1027.2	0.9728
1027.4	0.97128
1027.6	0.96989
1027.8	0.96864
1028.0	0.96527
1028.2	0.96782
1028.4	0.97157
1028.6	0.97286
1028.8	0.97401
1029.0	0.9729
1029.2	0.9709
1029.4	0.97087
1029.6	0.9733
1029.8	0.9761
1030.0	0.97573
1030.2	0.97581
1030.4	0.97642
1030.6	0.97407
1030.8	0.97366
1031.0	0.97436
1031.2	0.97538
1031.4	0.97529
1031.6	0.97503
1031.8	0.97469
1032.0	0.97581
1032.2	0.97537
1032.4	0.97489
1032.6	0.97551
1032.8	0.97676
1033.0	0.97833
1033.2	0.9822
1033.4	0.98185
1033.6	0.98269
1033.8	0.98379
1034.0	0.98525
1034.2	0.98477
1034.4	0.98557
1034.6	0.98682
1034.8	0.98843
1035.0	0.98783
1035.2	0.98658
1035.4	0.98551
1035.6	0.98535
1035.8	0.9849
1036.0	0.98304
1036.2	0.9792
1036.4	0.97755
1036.6	0.97673
1036.8	0.97595
1037.0	0.98134
1037.2	0.98263
1037.4	0.98092
1037.6	0.98082
1037.8	0.97959
1038.0	0.98064
1038.2	0.98035
1038.4	0.98096
1038.6	0.98183
1038.8	0.98172
1039.0	0.98323
1039.2	0.98469
1039.4	0.98288
1039.6	0.97989
1039.8	0.97989
1040.0	0.97978
1040.2	0.98219
1040.4	0.98278
1040.6	0.97935
1040.8	0.97688
1041.0	0.9755
1041.2	0.97619
1041.4	0.97519
1041.6	0.9758
1041.8	0.97404
1042.0	0.97498
1042.2	0.97459
1042.4	0.97494
1042.6	0.97429
1042.8	0.97455
1043.0	0.97683
1043.2	0.97528
1043.4	0.97294
1043.6	0.97222
1043.8	0.9723
1044.0	0.97286
1044.2	0.97273
1044.4	0.97135
1044.6	0.97025
1044.8	0.97191
1045.0	0.97369
1045.2	0.97422
1045.4	0.97501
1045.6	0.97576
1045.8	0.97479
1046.0	0.97226
1046.2	0.97163
1046.4	0.97313
1046.6	0.97355
1046.8	0.9703
1047.0	0.96762
1047.2	0.96581
1047.4	0.96987
1047.6	0.97019
1047.8	0.97081
1048.0	0.97003
1048.2	0.96831
1048.4	0.97017
1048.6	0.97072
1048.8	0.967
1049.0	0.96655
1049.2	0.96859
1049.4	0.97079
1049.6	0.97213
1049.8	0.97081
1050.0	0.96863
1050.2	0.96915
1050.4	0.96978
1050.6	0.96708
1050.8	0.96648
1051.0	0.96727
1051.2	0.97012
1051.4	0.97231
1051.6	0.97275
1051.8	0.97025
1052.0	0.96848
1052.2	0.96798
1052.4	0.97024
1052.6	0.97095
1052.8	0.97147
1053.0	0.97256
1053.2	0.97356
1053.4	0.9719
1053.6	0.97033
1053.8	0.96722
1054.0	0.96899
1054.2	0.96958
1054.4	0.97061
1054.6	0.96944
1054.8	0.97015
1055.0	0.96843
1055.2	0.96723
1055.4	0.96422
1055.6	0.96636
1055.8	0.96646
1056.0	0.96589
1056.2	0.96638
1056.4	0.9672
1056.6	0.96808
1056.8	0.96687
1057.0	0.96631
1057.2	0.96674
1057.4	0.96581
1057.6	0.96583
1057.8	0.96199
1058.0	0.96287
1058.2	0.96291
1058.4	0.96328
1058.6	0.96501
1058.8	0.96538
1059.0	0.96358
1059.2	0.96347
1059.4	0.96556
1059.6	0.96498
1059.8	0.96532
1060.0	0.96532
1060.2	0.96473
1060.4	0.9656
1060.6	0.96735
1060.8	0.97021
1061.0	0.97287
1061.2	0.97198
1061.4	0.97382
1061.6	0.97225
1061.8	0.97362
1062.0	0.97366
1062.2	0.97447
1062.4	0.97432
1062.6	0.97347
1062.8	0.97453
1063.0	0.974
1063.2	0.97586
1063.4	0.97244
1063.6	0.97117
1063.8	0.97183
1064.0	0.97376
1064.2	0.97484
1064.4	0.97614
1064.6	0.97749
1064.8	0.97622
1065.0	0.97722
1065.2	0.9778
1065.4	0.97739
1065.6	0.97688
1065.8	0.97655
1066.0	0.97708
1066.2	0.97961
1066.4	0.98022
1066.6	0.97736
1066.8	0.98142
1067.0	0.98147
1067.2	0.9809
1067.4	0.97949
1067.6	0.9812
1067.8	0.98352
1068.0	0.9825
1068.2	0.9838
1068.4	0.98453
1068.6	0.98418
1068.8	0.98249
1069.0	0.98324
1069.2	0.98534
1069.4	0.98246
1069.6	0.98008
1069.8	0.97917
1070.0	0.97744
1070.2	0.97578
1070.4	0.97328
1070.6	0.97286
1070.8	0.97365
1071.0	0.97483
1071.2	0.97551
1071.4	0.97726
1071.6	0.98016
1071.8	0.98071
1072.0	0.9822
1072.2	0.98393
1072.4	0.98244
1072.6	0.97938
1072.8	0.97963
1073.0	0.97858
1073.2	0.98049
1073.4	0.98165
1073.6	0.98249
1073.8	0.98271
1074.0	0.98275
1074.2	0.97902
1074.4	0.97751
1074.6	0.97721
1074.8	0.9791
1075.0	0.97827
1075.2	0.97705
1075.4	0.97697
1075.6	0.97641
1075.8	0.97952
1076.0	0.982
1076.2	0.98241
1076.4	0.9831
1076.6	0.98195
1076.8	0.98011
1077.0	0.97709
1077.2	0.97703
1077.4	0.97466
1077.6	0.97306
1077.8	0.97458
1078.0	0.97397
1078.2	0.97264
1078.4	0.97272
1078.6	0.97055
1078.8	0.97096
1079.0	0.96933
1079.2	0.96836
1079.4	0.97131
1079.6	0.9735
1079.8	0.97474
1080.0	0.97378
1080.2	0.97407
1080.4	0.97371
1080.6	0.97462
1080.8	0.97462
1081.0	0.97455
1081.2	0.9725
1081.4	0.9728
1081.6	0.97477
1081.8	0.97462
1082.0	0.975
1082.2	0.97327
1082.4	0.972
1082.6	0.97379
1082.8	0.97706
1083.0	0.97567
1083.2	0.97691
1083.4	0.98247
1083.6	0.98119
1083.8	0.9797
1084.0	0.97994
1084.2	0.9805
1084.4	0.98132
1084.6	0.98092
1084.8	0.9832
1085.0	0.98182
1085.2	0.98797
1085.4	0.98543
1085.6	0.98359
1085.8	0.98368
1086.0	0.98417
1086.2	0.98359
1086.4	0.98533
1086.6	0.98426
1086.8	0.98218
1087.0	0.98107
1087.2	0.98094
1087.4	0.98008
1087.6	0.98091
1087.8	0.98177
1088.0	0.98032
1088.2	0.98063
1088.4	0.98399
1088.6	0.98343
1088.8	0.98408
1089.0	0.98565
1089.2	0.98463
1089.4	0.98486
1089.6	0.9855
1089.8	0.98119
1090.0	0.9832
1090.2	0.98269
1090.4	0.98268
1090.6	0.98043
1090.8	0.97863
1091.0	0.98268
1091.2	0.98107
1091.4	0.98116
1091.6	0.98386
1091.8	0.98391
1092.0	0.99095
1092.2	0.99009
1092.4	0.98983
1092.6	0.99002
1092.8	0.9903
1093.0	0.99143
1093.2	0.99317
1093.4	0.98764
1093.6	0.98398
1093.8	0.98462
1094.0	0.98638
1094.2	0.98561
1094.4	0.98658
1094.6	0.98456
1094.8	0.98263
1095.0	0.9823
1095.2	0.98052
1095.4	0.98039
1095.6	0.98284
1095.8	0.98393
1096.0	0.98583
1096.2	0.98504
1096.4	0.98946
1096.6	0.98542
1096.8	0.98658
1097.0	0.98501
1097.2	0.98454
1097.4	0.98489
1097.6	0.98582
1097.8	0.9847
1098.0	0.98204
1098.2	0.98133
1098.4	0.97949
1098.6	0.97551
1098.8	0.97856
1099.0	0.97831
1099.2	0.97719
1099.4	0.97666
1099.6	0.97606
1099.8	0.97822
1100.0	0.97894
1100.2	0.98248
1100.4	0.98297
1100.6	0.98181
1100.8	0.98167
1101.0	0.98045
1101.2	0.97588
1101.4	0.97855
1101.6	0.97568
1101.8	0.97914
1102.0	0.97535
1102.2	0.9759
1102.4	0.97908
1102.6	0.9816
1102.8	0.98212
1103.0	0.97718
1103.2	0.9787
1103.4	0.98024
1103.6	0.98166
1103.8	0.98085
1104.0	0.97724
1104.2	0.97897
1104.4	0.98086
1104.6	0.97795
1104.8	0.97724
1105.0	0.97411
1105.2	0.97264
1105.4	0.97502
1105.6	0.97231
1105.8	0.96931
1106.0	0.97056
1106.2	0.97107
1106.4	0.9698
1106.6	0.96631
1106.8	0.97174
1107.0	0.96691
1107.2	0.96722
1107.4	0.96322
1107.6	0.96376
1107.8	0.96594
1108.0	0.96262
1108.2	0.96343
1108.4	0.96228
1108.6	0.96604
1108.8	0.96704
1109.0	0.96714
1109.2	0.97053
1109.4	0.96863
1109.6	0.97161
1109.8	0.96824
1110.0	0.96812
1110.2	0.96906
1110.4	0.9715
1110.6	0.96887
1110.8	0.97258
1111.0	0.96898
1111.2	0.97005
1111.4	0.96878
1111.6	0.97089
1111.8	0.96788
1112.0	0.96655
1112.2	0.97411
1112.4	0.97176
1112.6	0.97308
1112.8	0.97031
1113.0	0.97026
1113.2	0.96872
1113.4	0.96599
1113.6	0.96706
1113.8	0.96656
1114.0	0.96919
1114.2	0.96865
1114.4	0.96997
1114.6	0.96693
1114.8	0.97188
1115.0	0.97143
1115.2	0.97141
1115.4	0.97028
1115.6	0.96579
1115.8	0.96967
1116.0	0.97164
1116.2	0.96775
1116.4	0.97091
1116.6	0.96899
1116.8	0.96901
1117.0	0.96688
1117.2	0.97053
1117.4	0.96887
1117.6	0.97135
1117.8	0.97433
1118.0	0.97769
1118.2	0.97528
1118.4	0.97315
1118.6	0.97232
1118.8	0.96987
1119.0	0.97399
1119.2	0.97292
1119.4	0.97493
1119.6	0.97256
1119.8	0.97171
1120.0	0.97513
1120.2	0.97758
1120.4	0.97301
1120.6	0.97513
1120.8	0.97198
1121.0	0.99247
1121.2	0.99167
1121.4	0.99088
1121.6	0.99009
1121.8	0.9893
1122.0	0.98859
1122.2	0.98997
1122.4	0.99135
1122.6	0.99273
1122.8	0.99412
1123.0	0.9955
1123.2	0.9967
1123.4	0.9979
1123.6	0.99911
1123.8	0.999
1124.0	0.999
1124.2	0.999
1124.4	0.999
1124.6	0.999
1124.8	0.999
1125.0	0.999
1125.2	0.999
1125.4	0.999
1125.6	0.999
1125.8	0.999
1126.0	0.999
1126.2	0.999
1126.4	0.999
1126.6	0.999
1126.8	0.99989
1127.0	0.99916
1127.2	0.99698
1127.4	0.99481
1127.6	0.99264
1127.8	0.99047
1128.0	0.98838
1128.2	0.98808
1128.4	0.98778
1128.6	0.98747
1128.8	0.98717
1129.0	0.98689
1129.2	0.98862
1129.4	0.99035
1129.6	0.99208
1129.8	0.99381
1130.0	0.99546
1130.2	0.99458
1130.4	0.9937
1130.6	0.99282
1130.8	0.99194
1131.0	0.99106
1131.2	0.9902
1131.4	0.98934
1131.6	0.98848
1131.8	0.98762
1132.0	0.98685
1132.2	0.98823
1132.4	0.9896
1132.6	0.99098
1132.8	0.99236
1133.0	0.9937
1133.2	0.99162
1133.4	0.98953
1133.6	0.98746
1133.8	0.98538
1134.0	0.98333
1134.2	0.98172
1134.4	0.98011
1134.6	0.97851
1134.8	0.97691
1135.0	0.97537
1135.2	0.97768
1135.4	0.98
1135.6	0.98232
1135.8	0.98465
1136.0	0.98687
1136.2	0.98593
1136.4	0.98499
1136.6	0.98405
1136.8	0.98311
1137.0	0.98218
1137.2	0.98171
1137.4	0.98123
1137.6	0.98076
1137.8	0.98029
1138.0	0.97982
1138.2	0.97937
1138.4	0.97893
1138.6	0.97848
1138.8	0.97803
1139.0	0.97756
1139.2	0.97584
1139.4	0.97411
1139.6	0.97239
1139.8	0.97068
1140.0	0.96913
1140.2	0.97159
1140.4	0.97405
1140.6	0.97652
1140.8	0.97899
1141.0	0.9814
1141.2	0.97992
1141.4	0.97845
1141.6	0.97698
1141.8	0.97551
1142.0	0.9741
1142.2	0.9739
1142.4	0.97371
1142.6	0.97351
1142.8	0.97331
1143.0	0.9731
1143.2	0.97232
1143.4	0.97153
1143.6	0.97075
1143.8	0.96996
1144.0	0.96926
1144.2	0.97019
1144.4	0.97112
1144.6	0.97205
1144.8	0.97298
1145.0	0.97391
1145.2	0.97444
1145.4	0.97497
1145.6	0.9755
1145.8	0.97603
1146.0	0.97663
1146.2	0.97845
1146.4	0.98028
1146.6	0.98211
1146.8	0.98394
1147.0	0.98573
1147.2	0.98603
1147.4	0.98634
1147.6	0.98664
1147.8	0.98694
1148.0	0.98725
1148.2	0.98712
1148.4	0.987
1148.6	0.98688
1148.8	0.98675
1149.0	0.98668
1149.2	0.98784
1149.4	0.98899
1149.6	0.99015
1149.8	0.99131
1150.0	0.99247
1150.2	0.9935
1150.4	0.99453
1150.6	0.99556
1150.8	0.99659
1151.0	0.99752
1151.2	0.99626
1151.4	0.99501
1151.6	0.99375
1151.8	0.99249
1152.0	0.99126
1152.2	0.99069
1152.4	0.99012
1152.6	0.98956
1152.8	0.98899
1153.0	0.98845
1153.2	0.98948
1153.4	0.99051
1153.6	0.99154
1153.8	0.99257
1154.0	0.99362
1154.2	0.99494
1154.4	0.99626
1154.6	0.99758
1154.8	0.99891
1155.0	0.999
1155.2	0.99966
1155.4	0.99915
1155.6	0.99863
1155.8	0.99812
1156.0	0.99759
1156.2	0.99623
1156.4	0.99486
1156.6	0.9935
1156.8	0.99214
1157.0	0.99087
1157.2	0.99142
1157.4	0.99197
1157.6	0.99251
1157.8	0.99306
1158.0	0.99362
1158.2	0.99443
1158.4	0.99524
1158.6	0.99606
1158.8	0.99687
1159.0	0.99766
1159.2	0.9969
1159.4	0.99614
1159.6	0.99538
1159.8	0.99462
1160.0	0.99391
1160.2	0.99428
1160.4	0.99464
1160.6	0.99501
1160.8	0.99538
1161.0	0.99571
1161.2	0.995
1161.4	0.9943
1161.6	0.99359
1161.8	0.99289
1162.0	0.99217
1162.2	0.99101
1162.4	0.98986
1162.6	0.9887
1162.8	0.98755
1163.0	0.98642
1163.2	0.9866
1163.4	0.98679
1163.6	0.98698
1163.8	0.98717
1164.0	0.98735
1164.2	0.98692
1164.4	0.98649
1164.6	0.98606
1164.8	0.98563
1165.0	0.98529
1165.2	0.98684
1165.4	0.9884
1165.6	0.98997
1165.8	0.99153
1166.0	0.99305
1166.2	0.99301
1166.4	0.99298
1166.6	0.99294
1166.8	0.9929
1167.0	0.99283
1167.2	0.9913
1167.4	0.98977
1167.6	0.98824
1167.8	0.98671
1168.0	0.98522
1168.2	0.98532
1168.4	0.98543
1168.6	0.98553
1168.8	0.98563
1169.0	0.98572
1169.2	0.98508
1169.4	0.98444
1169.6	0.9838
1169.8	0.98316
1170.0	0.98258
1170.2	0.98334
1170.4	0.98411
1170.6	0.98488
1170.8	0.98564
1171.0	0.98637
1171.2	0.98627
1171.4	0.98616
1171.6	0.98605
1171.8	0.98595
1172.0	0.98576
1172.2	0.98358
1172.4	0.98141
1172.6	0.97924
1172.8	0.97707
1173.0	0.97502
1173.2	0.97552
1173.4	0.97603
1173.6	0.97654
1173.8	0.97704
1174.0	0.97756
1174.2	0.97849
1174.4	0.97942
1174.6	0.98035
1174.8	0.98129
1175.0	0.9822
1175.2	0.98262
1175.4	0.98304
1175.6	0.98346
1175.8	0.98388
1176.0	0.98426
1176.2	0.98365
1176.4	0.98304
1176.6	0.98243
1176.8	0.98182
1177.0	0.98121
1177.2	0.98032
1177.4	0.97944
1177.6	0.97855
1177.8	0.97767
1178.0	0.97679
1178.2	0.97603
1178.4	0.97526
1178.6	0.9745
1178.8	0.97373
1179.0	0.97298
1179.2	0.97253
1179.4	0.97208
1179.6	0.97163
1179.8	0.97118
1180.0	0.97079
1180.2	0.97206
1180.4	0.97333
1180.6	0.9746
1180.8	0.97588
1181.0	0.97709
1181.2	0.97666
1181.4	0.97622
1181.6	0.97579
1181.8	0.97535
1182.0	0.97494
1182.2	0.97517
1182.4	0.9754
1182.6	0.97562
1182.8	0.97585
1183.0	0.97615
1183.2	0.97791
1183.4	0.97967
1183.6	0.98143
1183.8	0.98319
1184.0	0.98495
1184.2	0.98605
1184.4	0.98714
1184.6	0.98824
1184.8	0.98934
1185.0	0.9904
1185.2	0.98933
1185.4	0.98826
1185.6	0.98719
1185.8	0.98612
1186.0	0.98508
1186.2	0.9852
1186.4	0.98533
1186.6	0.98546
1186.8	0.98559
1187.0	0.98575
1187.2	0.98703
1187.4	0.98832
1187.6	0.98961
1187.8	0.99091
1188.0	0.99217
1188.2	0.99233
1188.4	0.9925
1188.6	0.99267
1188.8	0.99284
1189.0	0.993
1189.2	0.99308
1189.4	0.99316
1189.6	0.99325
1189.8	0.99333
1190.0	0.99336
1190.2	0.99251
1190.4	0.99166
1190.6	0.9908
1190.8	0.98995
1191.0	0.98914
1191.2	0.9907
1191.4	0.99226
1191.6	0.99382
1191.8	0.99539
1192.0	0.9969
1192.2	0.99621
1192.4	0.99551
1192.6	0.99482
1192.8	0.99412
1193.0	0.99344
1193.2	0.99306
1193.4	0.99269
1193.6	0.99231
1193.8	0.99193
1194.0	0.99153
1194.2	0.98912
1194.4	0.98671
1194.6	0.9843
1194.8	0.9819
1195.0	0.9796
1195.2	0.98014
1195.4	0.98068
1195.6	0.98123
1195.8	0.98177
1196.0	0.9823
1196.2	0.98248
1196.4	0.98265
1196.6	0.98283
1196.8	0.98301
1197.0	0.98318
1197.2	0.98218
1197.4	0.98118
1197.6	0.98018
1197.8	0.97919
1198.0	0.97826
1198.2	0.97992
1198.4	0.98158
1198.6	0.98325
1198.8	0.98492
1199.0	0.98655
1199.2	0.98682
1199.4	0.9871
1199.6	0.98738
1199.8	0.98766
1200.0	0.98794
