Typical Measured Spectrum of Semrock FF525-Di01 Optical Filter	
For wavelengths between 320 and 1120 nm, values near or below 3e-7 (Optical Density 6.5) are measurement noise limited.
For wavelengths < 320 nm and > 1120 nm, values near or below 3e-6 (Optical Density 5.5) are measurement noise limited. 
Data format:  Wavelength (nm) <tab> Transmission (0 to 1)
470.0	0.14745
470.2	0.1633
470.4	0.18111
470.6	0.19924
470.8	0.21661
471.0	0.23499
471.2	0.25219
471.4	0.2663
471.6	0.27811
471.8	0.28741
472.0	0.2919
472.2	0.29256
472.4	0.28851
472.6	0.28087
472.8	0.26953
473.0	0.25446
473.2	0.23757
473.4	0.21954
473.6	0.2018
473.8	0.18344
474.0	0.16555
474.2	0.14846
474.4	0.13273
474.6	0.11858
474.8	0.10573
475.0	0.09396
475.2	0.08417
475.4	0.07547
475.6	0.06801
475.8	0.06144
476.0	0.05578
476.2	0.05102
476.4	0.04674
476.6	0.04316
476.8	0.04003
477.0	0.03744
477.2	0.03515
477.4	0.03343
477.6	0.03172
477.8	0.0302
478.0	0.02887
478.2	0.02795
478.4	0.02697
478.6	0.02618
478.8	0.02546
479.0	0.0249
479.2	0.02439
479.4	0.02398
479.6	0.02359
479.8	0.02321
480.0	0.02292
480.2	0.02267
480.4	0.02253
480.6	0.02252
480.8	0.02245
481.0	0.0225
481.2	0.0225
481.4	0.02246
481.6	0.02235
481.8	0.02247
482.0	0.02259
482.2	0.02256
482.4	0.02264
482.6	0.02263
482.8	0.02266
483.0	0.02269
483.2	0.02276
483.4	0.0228
483.6	0.02313
483.8	0.02354
484.0	0.02406
484.2	0.02474
484.4	0.02548
484.6	0.02628
484.8	0.02717
485.0	0.02772
485.2	0.02847
485.4	0.02889
485.6	0.02967
485.8	0.03016
486.0	0.03095
486.2	0.03167
486.4	0.0325
486.6	0.03313
486.8	0.03399
487.0	0.03478
487.2	0.03543
487.4	0.03607
487.6	0.03653
487.8	0.03685
488.0	0.03702
488.2	0.03703
488.4	0.0367
488.6	0.03608
488.8	0.03539
489.0	0.03439
489.2	0.03311
489.4	0.03176
489.6	0.03024
489.8	0.02878
490.0	0.02716
490.2	0.02562
490.4	0.02412
490.6	0.02276
490.8	0.02136
491.0	0.02018
491.2	0.0191
491.4	0.01806
491.6	0.01726
491.8	0.01652
492.0	0.0159
492.2	0.01549
492.4	0.01502
492.6	0.01467
492.8	0.01456
493.0	0.01441
493.2	0.01446
493.4	0.01449
493.6	0.01467
493.8	0.0149
494.0	0.01518
494.2	0.0156
494.4	0.01617
494.6	0.01688
494.8	0.01763
495.0	0.01843
495.2	0.01937
495.4	0.02053
495.6	0.02171
495.8	0.02304
496.0	0.02444
496.2	0.0259
496.4	0.02734
496.6	0.02873
496.8	0.02969
497.0	0.03061
497.2	0.03111
497.4	0.03127
497.6	0.03101
497.8	0.03038
498.0	0.02948
498.2	0.02827
498.4	0.02677
498.6	0.02512
498.8	0.02336
499.0	0.02165
499.2	0.01999
499.4	0.01843
499.6	0.01696
499.8	0.0156
500.0	0.01545
500.2	0.015
500.4	0.01414
500.6	0.01344
500.8	0.01292
501.0	0.01252
501.2	0.01222
501.4	0.01175
501.6	0.01141
501.8	0.01123
502.0	0.01106
502.2	0.01086
502.4	0.01081
502.6	0.01085
502.8	0.011
503.0	0.01115
503.2	0.01143
503.4	0.01179
503.6	0.01231
503.8	0.01291
504.0	0.01358
504.2	0.01441
504.4	0.01556
504.6	0.01678
504.8	0.01827
505.0	0.01981
505.2	0.02165
505.4	0.02365
505.6	0.02575
505.8	0.02776
506.0	0.02962
506.2	0.03123
506.4	0.03237
506.6	0.03295
506.8	0.033
507.0	0.03244
507.2	0.03143
507.4	0.02987
507.6	0.02803
507.8	0.02574
508.0	0.02339
508.2	0.02102
508.4	0.01881
508.6	0.01675
508.8	0.01501
509.0	0.01352
509.2	0.01226
509.4	0.01124
509.6	0.01056
509.8	0.01004
510.0	0.00975
510.2	0.00962
510.4	0.00953
510.6	0.00948
510.8	0.00942
511.0	0.00933
511.2	0.00918
511.4	0.00884
511.6	0.00847
511.8	0.00801
512.0	0.00751
512.2	0.00697
512.4	0.00654
512.6	0.00617
512.8	0.00594
513.0	0.00574
513.2	0.0056
513.4	0.00551
513.6	0.0054
513.8	0.00543
514.0	0.00538
514.2	0.00536
514.4	0.00537
514.6	0.00539
514.8	0.00544
515.0	0.00551
515.2	0.00558
515.4	0.00568
515.6	0.00577
515.8	0.00589
516.0	0.00606
516.2	0.00624
516.4	0.00639
516.6	0.00661
516.8	0.00686
517.0	0.00712
517.2	0.00741
517.4	0.00772
517.6	0.00811
517.8	0.00852
518.0	0.00903
518.2	0.00953
518.4	0.0101
518.6	0.01081
518.8	0.01159
519.0	0.01248
519.2	0.01358
519.4	0.01482
519.6	0.01623
519.8	0.0178
520.0	0.01969
520.2	0.02193
520.4	0.02448
520.6	0.02753
520.8	0.03116
521.0	0.03558
521.2	0.04075
521.4	0.04669
521.6	0.05405
521.8	0.06255
522.0	0.07279
522.2	0.085
522.4	0.09965
522.6	0.11619
522.8	0.13497
523.0	0.15686
523.2	0.18104
523.4	0.20748
523.6	0.23539
523.8	0.26391
524.0	0.29322
524.2	0.32144
524.4	0.34994
524.6	0.3761
524.8	0.40099
525.0	0.42183
525.2	0.44019
525.4	0.4562
525.6	0.46818
525.8	0.47967
526.0	0.49076
526.2	0.50416
526.4	0.51844
526.6	0.53728
526.8	0.55947
527.0	0.5852
527.2	0.6175
527.4	0.6522
527.6	0.69007
527.8	0.72757
528.0	0.76814
528.2	0.80537
528.4	0.83976
528.6	0.86664
528.8	0.89306
529.0	0.91206
529.2	0.92742
529.4	0.93803
529.6	0.94253
529.8	0.94641
530.0	0.94989
530.2	0.95372
530.4	0.95506
530.6	0.95628
530.8	0.95924
531.0	0.96153
531.2	0.9657
531.4	0.96755
531.6	0.97084
531.8	0.97227
532.0	0.97542
532.2	0.97758
532.4	0.97615
532.6	0.97738
532.8	0.97551
533.0	0.97697
533.2	0.97554
533.4	0.97332
533.6	0.97428
533.8	0.97316
534.0	0.97193
534.2	0.97236
534.4	0.97025
534.6	0.96876
534.8	0.96908
535.0	0.97095
535.2	0.97406
535.4	0.97484
535.6	0.97649
535.8	0.97524
536.0	0.97598
536.2	0.97616
536.4	0.97882
536.6	0.98096
536.8	0.97974
537.0	0.98206
537.2	0.98397
537.4	0.98489
537.6	0.98291
537.8	0.98331
538.0	0.98307
538.2	0.9821
538.4	0.97802
538.6	0.97752
538.8	0.97477
539.0	0.97547
539.2	0.97357
539.4	0.97122
539.6	0.9709
539.8	0.96978
540.0	0.9667
540.2	0.96479
540.4	0.96507
540.6	0.96588
540.8	0.96552
541.0	0.96424
541.2	0.96208
541.4	0.96369
541.6	0.96637
541.8	0.96889
542.0	0.97277
542.2	0.97299
542.4	0.97598
542.6	0.97652
542.8	0.97876
543.0	0.97959
543.2	0.98425
543.4	0.98458
543.6	0.98474
543.8	0.98827
544.0	0.98978
544.2	0.98903
544.4	0.98866
544.6	0.9881
544.8	0.98928
545.0	0.98775
545.2	0.98607
545.4	0.98607
545.6	0.98063
545.8	0.97953
546.0	0.98126
546.2	0.98032
546.4	0.97691
546.6	0.97535
546.8	0.974
547.0	0.97184
547.2	0.97331
547.4	0.96904
547.6	0.96857
547.8	0.9704
548.0	0.97164
548.2	0.97109
548.4	0.96985
548.6	0.97018
548.8	0.9716
549.0	0.97377
549.2	0.9738
549.4	0.97354
549.6	0.9765
549.8	0.97562
550.0	0.97577
550.2	0.97992
550.4	0.97898
550.6	0.97828
550.8	0.97734
551.0	0.97781
551.2	0.97938
551.4	0.98249
551.6	0.97934
551.8	0.97816
552.0	0.97953
552.2	0.97863
552.4	0.97779
552.6	0.97729
552.8	0.97867
553.0	0.97901
553.2	0.97716
553.4	0.97592
553.6	0.97377
553.8	0.97207
554.0	0.97088
554.2	0.97023
554.4	0.97142
554.6	0.97096
554.8	0.97139
555.0	0.97301
555.2	0.97572
555.4	0.97309
555.6	0.97266
555.8	0.97292
556.0	0.97201
556.2	0.97296
556.4	0.97403
556.6	0.97523
556.8	0.97558
557.0	0.97766
557.2	0.97654
557.4	0.97544
557.6	0.97654
557.8	0.97788
558.0	0.97777
558.2	0.97823
558.4	0.98105
558.6	0.97963
558.8	0.98132
559.0	0.98003
559.2	0.97943
559.4	0.97865
559.6	0.97801
559.8	0.97983
560.0	0.98055
560.2	0.97935
560.4	0.97927
560.6	0.97577
560.8	0.97566
561.0	0.97551
561.2	0.97444
561.4	0.97319
561.6	0.97279
561.8	0.97176
562.0	0.9724
562.2	0.97032
562.4	0.96615
562.6	0.96785
562.8	0.96634
563.0	0.96547
563.2	0.96441
563.4	0.96341
563.6	0.96135
563.8	0.96264
564.0	0.96441
564.2	0.96448
564.4	0.96322
564.6	0.96477
564.8	0.96726
565.0	0.96918
565.2	0.97001
565.4	0.96784
565.6	0.9675
565.8	0.96772
566.0	0.96877
566.2	0.97127
566.4	0.97218
566.6	0.97528
566.8	0.97638
567.0	0.9781
567.2	0.97872
567.4	0.98046
567.6	0.98109
567.8	0.9815
568.0	0.97998
568.2	0.97885
568.4	0.98036
568.6	0.9835
568.8	0.98263
569.0	0.98275
569.2	0.98338
569.4	0.98341
569.6	0.98126
569.8	0.97925
570.0	0.98095
570.2	0.98215
570.4	0.98154
570.6	0.97953
570.8	0.98056
571.0	0.97953
571.2	0.97908
571.4	0.97839
571.6	0.97751
571.8	0.97772
572.0	0.97534
572.2	0.97584
572.4	0.97599
572.6	0.97529
572.8	0.97623
573.0	0.97957
573.2	0.9782
573.4	0.97672
573.6	0.97696
573.8	0.97664
574.0	0.97533
574.2	0.97777
574.4	0.97723
574.6	0.97674
574.8	0.97524
575.0	0.97511
575.2	0.97602
575.4	0.97626
575.6	0.9768
575.8	0.9781
576.0	0.97829
576.2	0.97747
576.4	0.98002
576.6	0.97949
576.8	0.97724
577.0	0.97843
577.2	0.9779
577.4	0.98029
577.6	0.97761
577.8	0.97712
578.0	0.97766
578.2	0.9773
578.4	0.97723
578.6	0.97801
578.8	0.97804
579.0	0.97612
579.2	0.97549
579.4	0.97728
579.6	0.97836
579.8	0.97739
580.0	0.9792
580.2	0.97848
580.4	0.97415
580.6	0.9738
580.8	0.9744
581.0	0.97315
581.2	0.97214
581.4	0.97164
581.6	0.97158
581.8	0.97269
582.0	0.97208
582.2	0.97803
582.4	0.97791
582.6	0.97767
582.8	0.97904
583.0	0.97853
583.2	0.97667
583.4	0.97729
583.6	0.97672
583.8	0.97705
584.0	0.97664
584.2	0.97479
584.4	0.97481
584.6	0.97496
584.8	0.9751
585.0	0.97592
585.2	0.97773
585.4	0.97808
585.6	0.97835
585.8	0.9779
586.0	0.97685
586.2	0.97625
586.4	0.97627
586.6	0.97592
586.8	0.97308
587.0	0.97337
587.2	0.97417
587.4	0.97161
587.6	0.97438
587.8	0.97284
588.0	0.97106
588.2	0.97478
588.4	0.97163
588.6	0.97099
588.8	0.97148
589.0	0.97306
589.2	0.97117
589.4	0.97014
589.6	0.97191
589.8	0.97205
590.0	0.96982
590.2	0.9716
590.4	0.9718
590.6	0.96908
590.8	0.9706
591.0	0.97297
591.2	0.9735
591.4	0.97382
591.6	0.97574
591.8	0.9761
592.0	0.97516
592.2	0.97572
592.4	0.97783
592.6	0.9779
592.8	0.9781
593.0	0.97859
593.2	0.97932
593.4	0.97878
593.6	0.98035
593.8	0.97821
594.0	0.97801
594.2	0.97867
594.4	0.97927
594.6	0.97843
594.8	0.98024
595.0	0.98079
595.2	0.97865
595.4	0.97843
595.6	0.97941
595.8	0.9777
596.0	0.97667
596.2	0.9751
596.4	0.97621
596.6	0.97924
596.8	0.97885
597.0	0.97533
597.2	0.97783
597.4	0.97676
597.6	0.97385
597.8	0.97285
598.0	0.97395
598.2	0.97292
598.4	0.973
598.6	0.9706
598.8	0.97095
599.0	0.96947
599.2	0.97111
599.4	0.97335
599.6	0.97162
599.8	0.96853
600.0	0.96893
600.2	0.96482
600.4	0.96373
600.6	0.96554
600.8	0.96458
601.0	0.9655
601.2	0.96399
601.4	0.96494
601.6	0.96633
601.8	0.96561
602.0	0.96338
602.2	0.962
602.4	0.96162
602.6	0.9614
602.8	0.96338
603.0	0.96587
603.2	0.96778
603.4	0.96875
603.6	0.97086
603.8	0.97217
604.0	0.9705
604.2	0.96934
604.4	0.96972
604.6	0.97187
604.8	0.97271
605.0	0.97267
605.2	0.97415
605.4	0.97674
605.6	0.97697
605.8	0.97865
606.0	0.9744
606.2	0.97401
606.4	0.97569
606.6	0.97623
606.8	0.9741
607.0	0.97477
607.2	0.97675
607.4	0.97798
607.6	0.97681
607.8	0.97627
608.0	0.97432
608.2	0.97552
608.4	0.97679
608.6	0.97535
608.8	0.97326
609.0	0.97197
609.2	0.9708
609.4	0.96984
609.6	0.97083
609.8	0.96908
610.0	0.96926
610.2	0.96957
610.4	0.96811
610.6	0.9655
610.8	0.966
611.0	0.96881
611.2	0.9691
611.4	0.96952
611.6	0.96839
611.8	0.96882
612.0	0.96744
612.2	0.96704
612.4	0.96517
612.6	0.96653
612.8	0.96756
613.0	0.96962
613.2	0.97149
613.4	0.97251
613.6	0.97145
613.8	0.9716
614.0	0.97264
614.2	0.97301
614.4	0.97328
614.6	0.97351
614.8	0.97523
615.0	0.97308
615.2	0.97416
615.4	0.97384
615.6	0.97685
615.8	0.97743
616.0	0.98019
616.2	0.97969
616.4	0.98056
616.6	0.97876
616.8	0.97903
617.0	0.98099
617.2	0.9826
617.4	0.98269
617.6	0.98323
617.8	0.98101
618.0	0.98176
618.2	0.98055
618.4	0.97889
618.6	0.97834
618.8	0.98037
619.0	0.98252
619.2	0.98378
619.4	0.98293
619.6	0.98206
619.8	0.97972
620.0	0.97548
620.2	0.97522
620.4	0.97654
620.6	0.97657
620.8	0.97548
621.0	0.97432
621.2	0.97215
621.4	0.96826
621.6	0.96904
621.8	0.96934
622.0	0.97051
622.2	0.97072
622.4	0.9683
622.6	0.96832
622.8	0.96688
623.0	0.9683
623.2	0.97005
623.4	0.97037
623.6	0.97194
623.8	0.97372
624.0	0.9778
624.2	0.97656
624.4	0.97392
624.6	0.97472
624.8	0.97571
625.0	0.97467
625.2	0.97568
625.4	0.97595
625.6	0.97537
625.8	0.97731
626.0	0.97956
626.2	0.98137
626.4	0.98176
626.6	0.9848
626.8	0.98494
627.0	0.98658
627.2	0.98549
627.4	0.98542
627.6	0.98461
627.8	0.98355
628.0	0.98249
628.2	0.98203
628.4	0.98245
628.6	0.98299
628.8	0.98242
629.0	0.97995
629.2	0.97888
629.4	0.98092
629.6	0.98174
629.8	0.97945
630.0	0.97921
630.2	0.9789
630.4	0.97915
630.6	0.97832
630.8	0.97905
631.0	0.97956
631.2	0.9786
631.4	0.97758
631.6	0.97639
631.8	0.97521
632.0	0.97383
632.2	0.97407
632.4	0.97262
632.6	0.97121
632.8	0.97438
633.0	0.97337
633.2	0.9733
633.4	0.97129
633.6	0.96724
633.8	0.96716
634.0	0.96695
634.2	0.96875
634.4	0.96715
634.6	0.96856
634.8	0.9678
635.0	0.96784
635.2	0.96889
635.4	0.96908
635.6	0.96786
635.8	0.96811
636.0	0.96927
636.2	0.97015
636.4	0.97516
636.6	0.97738
636.8	0.97974
637.0	0.98078
637.2	0.97968
637.4	0.98222
637.6	0.98761
637.8	0.98747
638.0	0.98917
638.2	0.98703
638.4	0.988
638.6	0.98864
638.8	0.99063
639.0	0.99004
639.2	0.98974
639.4	0.99134
639.6	0.99432
639.8	0.99277
640.0	0.9931
640.2	0.99651
640.4	0.99671
640.6	0.99761
640.8	0.99925
641.0	0.99701
641.2	0.99744
641.4	0.99781
641.6	0.99938
641.8	0.99944
642.0	0.99639
642.2	0.99394
642.4	0.99291
642.6	0.99075
642.8	0.98984
643.0	0.98919
643.2	0.98886
643.4	0.98598
643.6	0.98349
643.8	0.98104
644.0	0.97856
644.2	0.97679
644.4	0.97433
644.6	0.97302
644.8	0.97164
645.0	0.97144
645.2	0.97039
645.4	0.97155
645.6	0.96938
645.8	0.96777
646.0	0.96861
646.2	0.9685
646.4	0.96879
646.6	0.96714
646.8	0.96926
647.0	0.96797
647.2	0.97094
647.4	0.96663
647.6	0.96547
647.8	0.96812
648.0	0.96784
648.2	0.96867
648.4	0.96791
648.6	0.97166
648.8	0.97274
649.0	0.97321
649.2	0.97287
649.4	0.97221
649.6	0.97311
649.8	0.97396
650.0	0.97738
650.2	0.98101
650.4	0.98125
650.6	0.98109
650.8	0.9823
651.0	0.98244
651.2	0.98176
651.4	0.98661
651.6	0.98964
651.8	0.98852
652.0	0.98867
652.2	0.98814
652.4	0.98841
652.6	0.98673
652.8	0.98603
653.0	0.98583
653.2	0.98597
653.4	0.98595
653.6	0.98777
653.8	0.98783
654.0	0.98838
654.2	0.98723
654.4	0.98817
654.6	0.98694
654.8	0.98642
655.0	0.98598
655.2	0.98901
655.4	0.98832
655.6	0.98187
655.8	0.98297
656.0	0.98217
656.2	0.9838
656.4	0.98265
656.6	0.98054
656.8	0.97708
657.0	0.97751
657.2	0.97371
657.4	0.97305
657.6	0.97134
657.8	0.96924
658.0	0.96687
658.2	0.96711
658.4	0.96487
658.6	0.96175
658.8	0.96228
659.0	0.96196
659.2	0.96297
659.4	0.96335
659.6	0.96284
659.8	0.962
660.0	0.96269
660.2	0.96543
660.4	0.96402
660.6	0.96253
660.8	0.96235
661.0	0.96452
661.2	0.96454
661.4	0.96388
661.6	0.96506
661.8	0.96602
662.0	0.96907
662.2	0.97006
662.4	0.96825
662.6	0.96775
662.8	0.96814
663.0	0.96812
663.2	0.96657
663.4	0.97159
663.6	0.96871
663.8	0.9699
664.0	0.97095
664.2	0.97001
664.4	0.96817
664.6	0.96837
664.8	0.97062
665.0	0.97193
665.2	0.97539
665.4	0.97744
665.6	0.97796
665.8	0.97735
666.0	0.97772
666.2	0.97619
666.4	0.97547
666.6	0.97371
666.8	0.97553
667.0	0.97315
667.2	0.973
667.4	0.97073
667.6	0.97074
667.8	0.97036
668.0	0.97366
668.2	0.97555
668.4	0.97465
668.6	0.97437
668.8	0.97229
669.0	0.972
669.2	0.97045
669.4	0.97133
669.6	0.97119
669.8	0.97326
670.0	0.97269
670.2	0.97064
670.4	0.97131
670.6	0.97304
670.8	0.97125
671.0	0.97152
671.2	0.97054
671.4	0.97258
671.6	0.97166
671.8	0.97116
672.0	0.97024
672.2	0.9724
672.4	0.97317
672.6	0.97051
672.8	0.9688
673.0	0.96832
673.2	0.97005
673.4	0.97178
673.6	0.97504
673.8	0.97552
674.0	0.97694
674.2	0.97753
674.4	0.97752
674.6	0.98105
674.8	0.98219
675.0	0.98118
675.2	0.98357
675.4	0.98455
675.6	0.98487
675.8	0.98622
676.0	0.9894
676.2	0.99202
676.4	0.99054
676.6	0.98932
676.8	0.98571
677.0	0.9873
677.2	0.98953
677.4	0.98939
677.6	0.98662
677.8	0.98563
678.0	0.98823
678.2	0.99056
678.4	0.98814
678.6	0.98672
678.8	0.98754
679.0	0.98646
679.2	0.98537
679.4	0.98516
679.6	0.98435
679.8	0.98539
680.0	0.98494
680.2	0.98282
680.4	0.98298
680.6	0.98118
680.8	0.98164
681.0	0.98174
681.2	0.98168
681.4	0.97949
681.6	0.97921
681.8	0.9767
682.0	0.97331
682.2	0.97267
682.4	0.97382
682.6	0.97135
682.8	0.9716
683.0	0.97274
683.2	0.97022
683.4	0.97065
683.6	0.97094
683.8	0.97007
684.0	0.96755
684.2	0.9692
684.4	0.97055
684.6	0.97
684.8	0.96711
685.0	0.96715
685.2	0.96682
685.4	0.96694
685.6	0.96635
685.8	0.96309
686.0	0.96436
686.2	0.9656
686.4	0.96665
686.6	0.9682
686.8	0.96588
687.0	0.96531
687.2	0.96953
687.4	0.97159
687.6	0.97178
687.8	0.9715
688.0	0.97038
688.2	0.97273
688.4	0.97537
688.6	0.97727
688.8	0.97929
689.0	0.98225
689.2	0.98071
689.4	0.97876
689.6	0.97721
689.8	0.981
690.0	0.98133
690.2	0.98072
690.4	0.98092
690.6	0.98297
690.8	0.98081
691.0	0.98138
691.2	0.98073
691.4	0.98036
691.6	0.98093
691.8	0.98303
692.0	0.9841
692.2	0.98229
692.4	0.98065
692.6	0.98171
692.8	0.98137
693.0	0.98102
693.2	0.98381
693.4	0.98469
693.6	0.98396
693.8	0.98178
694.0	0.98233
694.2	0.98388
694.4	0.98277
694.6	0.98212
694.8	0.98007
695.0	0.97849
695.2	0.97707
695.4	0.97735
695.6	0.97885
695.8	0.98013
696.0	0.98038
696.2	0.97623
696.4	0.9752
696.6	0.97594
696.8	0.97382
697.0	0.9727
697.2	0.97188
697.4	0.9727
697.6	0.97284
697.8	0.97177
698.0	0.97311
698.2	0.97346
698.4	0.97055
698.6	0.9703
698.8	0.96993
699.0	0.96676
699.2	0.96693
699.4	0.96598
699.6	0.96546
699.8	0.96597
700.0	0.96745
700.2	0.96831
700.4	0.96413
700.6	0.96245
700.8	0.96226
701.0	0.96356
701.2	0.96345
701.4	0.96134
701.6	0.96227
701.8	0.96205
702.0	0.96444
702.2	0.96524
702.4	0.96352
702.6	0.96158
702.8	0.96391
703.0	0.96723
703.2	0.96857
703.4	0.96947
703.6	0.96883
703.8	0.96518
704.0	0.96584
704.2	0.96823
704.4	0.96852
704.6	0.96737
704.8	0.96531
705.0	0.96433
705.2	0.96645
705.4	0.9692
705.6	0.97177
705.8	0.97316
706.0	0.97183
706.2	0.97298
706.4	0.97385
706.6	0.97127
706.8	0.97179
707.0	0.97387
707.2	0.97589
707.4	0.9756
707.6	0.97559
707.8	0.97386
708.0	0.97397
708.2	0.97146
708.4	0.97022
708.6	0.97175
708.8	0.97273
709.0	0.97285
709.2	0.97303
709.4	0.97552
709.6	0.97601
709.8	0.97559
710.0	0.97303
710.2	0.97251
710.4	0.97258
710.6	0.9705
710.8	0.9732
711.0	0.97517
711.2	0.97364
711.4	0.97321
711.6	0.97395
711.8	0.97277
712.0	0.97019
712.2	0.969
712.4	0.96915
712.6	0.96963
712.8	0.96905
713.0	0.96905
713.2	0.96907
713.4	0.9714
713.6	0.97486
713.8	0.97289
714.0	0.9703
714.2	0.97164
714.4	0.96961
714.6	0.96645
714.8	0.96811
715.0	0.96823
715.2	0.96695
715.4	0.96709
715.6	0.96717
715.8	0.9681
716.0	0.96863
716.2	0.96943
716.4	0.96908
716.6	0.96943
716.8	0.97175
717.0	0.97232
717.2	0.97066
717.4	0.97164
717.6	0.97605
717.8	0.97548
718.0	0.9728
718.2	0.9708
718.4	0.97366
718.6	0.97476
718.8	0.97282
719.0	0.97198
719.2	0.97164
719.4	0.97363
719.6	0.97379
719.8	0.97527
720.0	0.97825
720.2	0.9811
720.4	0.9822
720.6	0.98232
720.8	0.97981
721.0	0.98049
721.2	0.98194
721.4	0.98197
721.6	0.98188
721.8	0.98171
722.0	0.98427
722.2	0.98448
722.4	0.98205
722.6	0.97926
722.8	0.98164
723.0	0.98211
723.2	0.98306
723.4	0.98233
723.6	0.98573
723.8	0.98628
724.0	0.98849
724.2	0.98745
724.4	0.98835
724.6	0.99061
724.8	0.99043
725.0	0.99047
725.2	0.98935
725.4	0.99322
725.6	0.99231
725.8	0.98997
726.0	0.99264
726.2	0.993
726.4	0.99333
726.6	0.99393
726.8	0.99649
727.0	0.99449
727.2	0.99026
727.4	0.98799
727.6	0.98852
727.8	0.98828
728.0	0.9866
728.2	0.98536
728.4	0.98377
728.6	0.98156
728.8	0.98008
729.0	0.98143
729.2	0.98238
729.4	0.98214
729.6	0.9838
729.8	0.98615
730.0	0.98303
730.2	0.97949
730.4	0.97997
730.6	0.9801
730.8	0.97788
731.0	0.97961
731.2	0.97783
731.4	0.97622
731.6	0.97568
731.8	0.976
732.0	0.97477
732.2	0.97341
732.4	0.97096
732.6	0.97039
732.8	0.97195
733.0	0.97279
733.2	0.96912
733.4	0.96943
733.6	0.97166
733.8	0.97342
734.0	0.97405
734.2	0.97418
734.4	0.97177
734.6	0.97077
734.8	0.96921
735.0	0.96744
735.2	0.96972
735.4	0.97235
735.6	0.97167
735.8	0.97176
736.0	0.97154
736.2	0.97298
736.4	0.97239
736.6	0.97176
736.8	0.97014
737.0	0.96878
737.2	0.97041
737.4	0.96945
737.6	0.97495
737.8	0.97546
738.0	0.9759
738.2	0.97898
738.4	0.98133
738.6	0.983
738.8	0.98394
739.0	0.98542
739.2	0.98479
739.4	0.98264
739.6	0.98211
739.8	0.98032
740.0	0.97792
740.2	0.98108
740.4	0.98329
740.6	0.98393
740.8	0.98259
741.0	0.98124
741.2	0.98167
741.4	0.98248
741.6	0.97943
741.8	0.98086
742.0	0.98453
742.2	0.98582
742.4	0.98608
742.6	0.9828
742.8	0.98297
743.0	0.98301
743.2	0.98271
743.4	0.98174
743.6	0.97974
743.8	0.98225
744.0	0.98537
744.2	0.98445
744.4	0.98374
744.6	0.9835
744.8	0.98036
745.0	0.97518
745.2	0.97435
745.4	0.97667
745.6	0.97602
745.8	0.9774
746.0	0.97719
746.2	0.97741
746.4	0.97757
746.6	0.97827
746.8	0.97825
747.0	0.9807
747.2	0.98201
747.4	0.98362
747.6	0.98092
747.8	0.97683
748.0	0.97633
748.2	0.97767
748.4	0.97706
748.6	0.97804
748.8	0.98002
749.0	0.97377
749.2	0.97146
749.4	0.97264
749.6	0.9733
749.8	0.97444
750.0	0.9748
750.2	0.97768
750.4	0.98062
750.6	0.97919
750.8	0.9751
751.0	0.97538
751.2	0.97598
751.4	0.97833
751.6	0.97682
751.8	0.97756
752.0	0.97509
752.2	0.97162
752.4	0.96902
752.6	0.97001
752.8	0.96873
753.0	0.96569
753.2	0.96312
753.4	0.95888
753.6	0.95787
753.8	0.95968
754.0	0.95815
754.2	0.95288
754.4	0.94739
754.6	0.94322
754.8	0.94001
755.0	0.93604
755.2	0.93242
755.4	0.92744
755.6	0.92333
755.8	0.92013
756.0	0.91762
756.2	0.91241
756.4	0.90677
756.6	0.90415
756.8	0.9025
757.0	0.9016
757.2	0.89834
757.4	0.89399
757.6	0.88965
757.8	0.88667
758.0	0.88515
758.2	0.88221
758.4	0.87944
758.6	0.87818
758.8	0.87902
759.0	0.87718
759.2	0.87192
759.4	0.86871
759.6	0.86857
759.8	0.86693
760.0	0.86622
